timestamps,FP1,FP2,F3,F4,C3,C4,P3,P4,O1,O2,F7,F8,T3,T4,T5,T6
1605290410.0,1.0,2.0,3.0,4.0,5.0,6.0,7.0,8.0,9.0,10.0,11.0,12.0,13.0,14.0,15.0,16.0
1605290410.004,-5.35699446097502,42.997267292286594,20.318895857175583,12.319802609292775,-7.095555413137986,5.271351064316808,-0.7322510414282133,-1.4173982146944069,4.312145021744137,-0.869280476081452,25.637350789654413,24.91794625772491,15.976775646601084,13.184800915541343,-4.123729549095872,-11.137923735408528
1605290410.008,-25.791508903639244,42.4063278553445,11.411982604715067,17.835237354085635,-7.206891828793743,8.25174126802475,-7.609415793087631,-0.0813612268253293,-4.243630304417455,-0.8178944380864874,20.438796612497168,24.892253238727427,7.617980132753521,13.86138374914171,-7.078426733806332,-4.680411627374654
1605290410.0119998,-26.973387777523428,33.67926573586636,5.639617669947387,6.590259372854231,-9.699114671549522,-2.1881887846188746,-16.156626779583398,-9.699114671549522,-10.555548638132263,-9.296590707255634,14.85484715037769,11.93440732433054,-5.065806912336888,1.597249347676845,-11.857328267338032,-4.731797665369618
1605290410.0159998,-26.20259720759896,35.126639139391195,14.400937148088838,-0.9206665140764164,-6.444665598535102,-9.690550331883694,-7.737880888075042,-12.92787072556646,-0.4667565117875632,-9.956044861524344,20.550133028152924,9.71624335088124,-0.2269550011443954,-4.192244266422491,-5.082935591668543,-9.562085236896284
1605290410.0199995,-26.13408249027234,46.59428995193411,24.952203616388218,7.463822018768628,-6.992783337148057,-5.716696726939771,2.565019729915343,-7.189763149462088,3.6441265278095982,-6.110656351567833,27.615713252460548,22.545624170290715,15.634202059967986,4.551946532387305,-5.160014648660989,-14.78633243305101
1605290410.0239997,-22.896762096589576,47.10815033188376,25.14918342870225,10.649756374456429,-11.137923735408528,-5.39125181963833,-0.9206665140764164,-11.309210528725076,-3.7554629434652926,-12.148515815976165,25.25195550469218,23.333543419546835,17.141525841153612,6.059270313572931,-11.985793362325444,-20.438796612497107
1605290410.0279996,-32.1805062943465,43.579642389562856,21.80052661936373,9.176689951934112,-5.100064271000197,-3.806848981460257,-3.3957606775005407,-14.25534337376971,-0.1841333028152583,-12.842227328908184,23.068048889906187,18.43474113069356,13.96415582513164,4.226501625085863,-5.5111525749599135,-15.265935454337344
1605290410.0319996,-36.83950707255661,44.8728576791028,14.546530922407904,11.883021286335577,-1.2118540627145489,2.402297276264622,-6.050705973907041,-8.208919569695551,3.498532753490532,-5.065806912336888,17.424149050125916,20.32746019684141,11.086537697413624,8.705651270313604,2.2395748226139016,-1.4259625543602343
1605290410.0359995,-38.423909910734686,42.14939766536968,9.459313160906415,9.724807690547069,-8.388770702677927,0.0299751888304271,-11.62609109636069,-8.97971013962002,-4.089472190432562,-8.945452780956709,9.502134859235554,18.888651132982407,3.018929732204197,6.341893522545235,-2.1624957656213923,-1.2546757610436858
1605290410.0399995,-43.314147859922144,42.354941817349534,17.218604898146058,7.429564660105318,-8.73990862897685,-5.1171929503318525,-5.982191256580422,-12.799405630579049,-3.173087846189028,-15.197420737010724,14.709253376058625,17.706772259098223,6.890011261158191,1.759971801327566,-2.6934848249026926,-10.341440146486578
1605290410.0439994,-38.13272236209656,50.53388619821472,22.16022888532848,10.350004486152468,-8.534364476996993,-4.286452002746593,-0.9634882124055536,-9.596342595559593,1.3403191577020224,-11.506190341039108,20.67003378347451,22.91389077592129,18.64884962233924,6.3675865415427175,-2.787692561226794,-11.651784115358174
1605290410.0479994,-40.68489558251313,52.98328734264136,20.07053000686659,10.57267731746398,-15.026133943694177,-2.565019729915281,-4.748926344701273,-7.677930510414251,-2.907593316548378,-9.236640329594842,16.91028867017627,24.84943154039829,16.9188530098421,9.502134859235554,-7.9006033417257635,-9.964609201190171
1605290410.051999,-45.86632108033872,54.584818860151096,29.43991760128179,17.9808311284047,-7.789266926070007,4.774619363698818,1.9740802929732515,-3.361503318837231,0.989181231403098,-7.652237491416768,21.90329869535366,27.590020233463065,12.259852231631983,9.793322407873688,-2.881900297550896,-7.994811078049866
1605290410.0559993,-38.68940444037534,63.52598947127492,36.12010254062717,30.476202700846905,5.776647104600626,17.44127772945757,8.48297843900209,5.648182009613215,10.024559578851026,-0.0128465094987099,27.53006985580227,33.20822705424585,12.662376195925871,15.034698283360068,6.984218997482292,0.2954697184710771
1605290410.0599992,-36.46267612726021,65.94113325703825,24.130027008468787,25.329034561684622,3.027494071870024,16.370735271229144,-0.8093300984206601,5.434073517967529,6.650209750515023,2.8904646372167853,17.852366033417287,29.414224582284305,10.1102029755093,15.437222247653956,6.650209750515023,6.436101258869337
1605290410.0639992,-43.36553389791711,57.2740215152209,17.526921126115845,14.974747905699274,-5.408380498969985,6.050705973907103,-2.7534352025634843,-1.5287346303501632,3.66981954680708,-2.70204916456852,13.373216388189547,24.703837766079225,14.940490547035964,11.660348455024064,1.3660121766995046,0.5695285877775546
1605290410.0679991,-49.29205694666968,44.32473994048984,21.56928944838639,15.916825268940292,-5.785211444266391,4.046650492103487,5.305608422980118,-1.2118540627145489,7.078426733806394,-6.042141634241213,14.880540169375172,25.954231357290027,18.991423208972336,11.1721810940719,-0.2098263218127406,-4.997292195010268
1605290410.071999,-57.727931517509695,34.27020517280845,18.665978301670894,14.03267054245826,-2.719177843900175,6.975654657816465,5.768082764934799,1.2204184023804383,8.405899382009643,-2.547891050583626,6.556002014190921,22.751168322270573,7.301099565117907,9.056789196612527,3.2244738841840546,-1.9997733119706715
1605290410.075999,-64.87915513847558,36.88232877088581,13.43316676585034,9.47644184023807,-0.8178944380864874,7.15550579079884,3.370067658503121,1.0833889677271995,10.67544939345391,1.4859129320210884,-0.1241829251544664,20.721419821469475,-2.6592274662393827,5.982191256580484,6.847189562829054,-0.6551719844357665
1605290410.079999,-61.29926115815973,40.659202563515706,8.78273032730605,10.923815243762906,-2.025466330968153,6.324764843213581,0.800765758754895,0.7322510414282756,10.761092790112183,1.4859129320210884,-2.43655463492787,22.511366811627404,-4.731797665369618,5.990755596246311,4.389224078736584,-0.5866572671091471
1605290410.083999,-58.64431586175323,30.57041043717101,4.474867475394858,8.234612588693095,-7.001347676813885,1.8284865186541848,-1.9997733119706715,-1.460219913023544,5.314172762645946,-2.6506631265735554,-7.600851453421804,17.321376974135987,-1.8627438773174327,4.877391439688747,-0.9977455710688632,-1.4859129320210265
1605290410.0879989,-55.31278773174636,23.7275030441749,10.538419958800672,5.06580691233695,-9.313719386587287,-2.684920485236865,4.466303135729031,-4.149422568093354,5.553974273289113,-8.465849759670373,-2.522198031586144,14.478016205081284,13.244751293202135,4.723233325703854,-1.60581368734261,-10.075945616845928
1605290410.0919988,-37.8672278324559,33.95332460517284,18.29771169604032,11.411982604715067,-6.393279560540138,0.8607161364156869,8.208919569695613,-1.6315067063400923,7.832088624399207,-10.118767315175065,8.397335042343816,23.02522719157705,20.56726170748458,8.448721080338782,-0.0984899061569841,-13.210493934538764
1605290410.0959988,-26.425270038910472,39.074799725337634,12.49965374227515,13.844255069810057,-3.053187090867444,6.718724467841642,-4.132293888761699,0.0385395284962545,1.4516555733577787,-5.982191256580422,3.96957143511104,24.481164934767712,1.3917051956969868,8.628572213321156,0.5609642481117272,-1.9055655756465697
1605290410.0999987,-33.47372158388644,32.3175357289998,4.791748043030473,11.197874113069382,-7.283970885786189,5.699568047608179,-13.116286198214665,-1.0833889677271376,-3.181652185854855,-0.6637363241015939,-5.905112199587975,20.39597491416804,-12.054308079652062,8.405899382009643,-2.6506631265735554,2.599277088578653
1605290410.103999,-35.837479331654805,31.281250629434684,6.607388052185885,16.37929961089497,-12.75658393224991,3.9867001144426952,-5.382687479972502,1.3660121766995046,2.3509112382696578,3.5841761501488065,-2.873335957885068,23.25646436255439,-2.299525200274631,12.876484687571557,-3.5584831311512617,-2.881900297550896
1605290410.1079986,-22.43428775463489,34.62134309910738,14.28960073243308,18.691671320668377,-6.196299748226108,4.055214831769314,8.140404852368993,4.063779171435142,12.16564449530788,5.887983520256382,7.866345983062517,23.15369228656446,12.790841290913283,12.92787072556652,2.5050693522545515,-4.286452002746593
1605290410.1119986,-9.40792712291139,30.99006308079655,20.40453925383386,8.81698768596936,0.2440836804761126,-0.4239348134584261,13.570196200503576,-0.4068061341267713,16.293656214236698,0.6123502861066917,12.345495628290257,17.509792446784193,20.32746019684141,6.547437674525094,3.215909544518228,-8.217483909361379
1605290410.1159985,-12.354059967956022,23.342107759212663,16.08811206225684,3.1217018081941257,-2.8048212405584487,-5.965062577248767,4.132293888761761,-8.208919569695551,10.17871769283592,-6.059270313572869,6.19629974822617,15.68558809796295,11.000894300755352,2.8133855802243386,-3.053187090867444,-11.043715999084426
1605290410.1199985,-20.54156868848704,21.82621963836121,5.89654785992221,8.328820325017197,-5.219965026321781,-4.32927370107573,-9.921787502861037,-11.16361675440601,1.2803687800412304,-5.8708548409246655,-1.2032897230487214,15.111777340352514,-6.48748729686424,3.7040769054703904,-1.9226942549782249,-4.157986907759181
1605290410.1239984,-15.74553847562368,27.196060608835005,3.7126412451362176,11.745991851682335,-10.564112977798093,0.0214108491645997,-12.979256763561423,-8.157533531700587,-1.357447837033615,-5.245658045319264,-1.811357839322468,17.663950560769084,-7.703623529411733,7.652237491416831,-0.1584402838177761,-4.843134081025375
1605290410.1279984,-9.733372030212832,30.95580572213324,8.431592401007126,9.639164293888792,-20.56726170748452,1.5030416113527434,-7.643673151750941,-3.1217018081940635,-0.4153704737925987,-7.5066437170977025,-0.4068061341267713,24.11289832913713,4.055214831769314,12.345495628290257,-5.2799154039825735,-12.619554497596672
1605290410.1319983,-14.015541863126542,24.498293614099367,10.40995486381326,6.752981826504952,-14.555095262073667,0.1413116044861835,-4.192244266422491,-3.3871963378347134,0.475320851453453,-5.930805218585457,2.1967531242847644,20.08765868619825,7.832088624399207,10.298618448157503,-4.1066008697642165,-7.994811078049866
1605290410.1359982,-12.345495628290196,14.65786733806366,7.866345983062517,4.432045777065721,-1.7685361409933311,-2.7619995422293115,-5.7081323872739445,-9.459313160906357,-0.3211627374684971,-3.275859922178957,5.134321629663569,8.911195422293462,2.4965050125887243,3.961007095445213,-0.3639844357976342,-1.4687842526893713
1605290410.1399982,-5.399816159304157,13.69866129549099,4.586203891050615,4.226501625085863,-6.0335772945753865,-1.931258594644052,-8.568621835660302,-10.27292542915996,-0.3211627374684971,-1.811357839322468,3.087444449530816,8.936888441290943,-1.6914570840008842,5.100064271000259,-3.318681620508094,-2.847642938887586
1605290410.143998,-4.7917480430304105,21.75770492103459,7.566594094758557,8.003375417715755,-12.302673929961058,3.387196337834776,-4.526253513389761,-3.609869169146226,5.442637857633357,2.153931425955628,2.864771618219303,16.036726024261874,4.449174456397376,11.883021286335577,-2.6335344472419004,-1.8627438773174327
1605290410.147998,-0.1584402838177761,31.65808157473109,14.400937148088838,13.141979217212208,-11.968664682993788,7.138377111467186,3.395760677500604,1.100517647058855,7.72075220874345,3.215909544518228,8.063325795376548,21.552160769054733,17.167218860151095,16.18231979858094,-3.00180105287248,-4.466303135728968
1605290410.151998,4.5005604943923405,28.59204797436488,12.285545250629465,12.097129777981262,-13.05633582055387,4.740362005035508,1.434526894026124,-1.8627438773174327,1.6058136873426725,-1.400269535362752,8.106147493705684,21.53503208972308,14.940490547035964,13.96415582513164,-7.335356923781154,-10.606934676127228
1605290410.155998,-0.1070542458228115,9.031096177615046,5.29704408331429,0.5866572671092094,-9.613471274891248,-2.856207278553413,-5.254222384985091,-11.540447699702415,0.0471038681620819,-7.737880888075042,4.577639551384787,10.47846958113988,5.793775783932281,5.759518425268971,-2.4279902952620422,-10.93237958342867
1605290410.159998,1.965515953307424,-6.881446921492301,3.215909544518228,-14.709253376058562,-2.907593316548378,-13.32183035019452,-5.082935591668543,-21.894734355687767,4.423481437399894,-13.6900969558251,4.928777477683711,-5.793775783932219,8.58575051499202,-4.963034836346958,5.022985214007813,-8.851245044632607
1605290410.163998,10.452776562142397,-3.695512565804501,4.483431815060685,-17.132961501487724,-5.494023895628259,-15.377271869993102,-2.1881887846188746,-20.318895857175523,5.89654785992221,-11.223567132066805,6.281943144884444,-6.932832959487265,11.831635248340612,-6.22199276722359,-0.3468557564659793,-7.643673151750941
1605290410.1679978,8.876938063630153,6.264814465552789,7.737880888075105,-5.05724257267106,-13.681532616159272,-7.318228244449499,1.5116059510185709,-9.185254291599875,6.033577294575449,-3.5584831311512617,7.412435980773663,5.887983520256382,11.626091096360753,2.839078599221821,-11.060844678416082,-8.482978439002029
1605290410.1719978,10.187282032501749,6.264814465552789,11.129359395742764,3.678383886472908,-19.488154909590264,-2.70204916456852,2.9161576562142675,-5.485459555962431,4.217937285420035,-3.9867001144426326,10.821043167772975,12.979256763561484,15.291628473334889,9.64772863355462,-17.749593957427297,-15.068955642023314
1605290410.1759975,18.7002356603342,-2.2224461432821845,10.795350148775494,1.8370508583200127,-14.760639414053529,-3.318681620508094,0.0128465094987722,-8.816987685969298,2.1453670862898,-5.485459555962431,12.37118864728774,8.157533531700649,13.989848844129122,8.166097871366476,-17.004496406500312,-14.41806582742043
1605290410.1799977,14.503709224078769,-19.43676887159529,4.380659739070756,-6.333329182879345,0.2869053788052497,-3.781155962462775,-0.8949734950789342,-11.317774868390904,8.337384664683025,-0.6808650034332487,7.343921263447044,-3.5499187914854344,7.069862394140566,2.582148409246998,-4.7574906843671005,-2.642098786907728
1605290410.1839976,-6.521744655527549,-50.02859015793084,-9.416491462577216,-17.621128862439885,3.2587312428473645,-5.999319935912077,-0.4496278324559083,-13.082028839551352,11.985793362325506,-3.943878416113496,-7.558029755092667,-16.764694895857144,3.421453696498085,-2.410861615930388,4.877391439688747,-0.912102174410589
1605290410.1879976,-40.38514369420917,-84.68847278553442,-28.53209759670402,-26.605121171892847,-8.971145799954192,-5.245658045319264,-5.05724257267106,-10.075945616845928,2.821949919890166,-7.498079377431875,-29.765362508583166,-22.78542568093382,-2.13680274662391,-0.4667565117875632,0.3468557564660416,-4.072343511100907
1605290410.1919975,-84.53431467154952,-115.39163048752572,-51.64725035477223,-34.18456177615012,-20.781370199130205,-3.23303822384982,-11.095102037079393,-3.053187090867444,-4.320709361409902,1.6143780270084995,-54.66189791714348,-27.315961364156525,-10.675449393453848,4.6632829480430615,-9.76762938887614,-0.483885191119218
1605290410.1959977,-122.4143890135042,-149.14369311055157,-77.33170501258866,-53.03467338063626,-34.48431366445408,-14.263907713435536,-16.01103300526433,-7.806395605401662,-3.2672955825131296,2.839078599221821,-77.77705067521168,-45.10409485008008,-14.178264316777264,-0.4496278324559083,-15.71128111696037,-4.59476823071638
1605290410.1999974,-132.23768661020824,-177.12339079880977,-86.20436090638586,-73.36641574731055,-38.389652552071375,-28.35224646372164,-15.565687342641304,-18.73449301899745,2.37660425726714,-6.093527672236178,-82.65015994506749,-64.57940325017162,-10.101638635843411,-11.172181094071838,-10.692578072785505,-13.313266010528691
1605290410.2039974,-104.80610666056302,-179.8554151522087,-75.60170840009152,-76.74932991531239,-22.36577303730828,-28.215217029068405,-9.253769008926495,-21.594982467383808,9.562085236896346,-6.281943144884381,-70.00919459830621,-69.127067612726,-4.020957473105942,-15.017569604028347,0.475320851453453,-9.399362783245564
1605290410.207997,-57.23976415655753,-163.24916054016933,-73.04097084000912,-72.3472593270771,-18.63172094300752,-28.377939482719125,-12.139951476310337,-26.08269645227737,4.055214831769314,-10.392826184481542,-66.3179642023346,-67.69682288853281,-8.585750514991958,-18.93147283131148,-2.710613504234347,-11.026587319752773
1605290410.2119973,-18.451869810025144,-139.75717683680472,-75.0364619821469,-65.1360853284504,-34.73267951476307,-31.81223968871592,-22.143100205996763,-30.91298402380404,-10.478469581139818,-22.656960585946408,-68.9129591210803,-60.51990624856944,-20.704291142137755,-21.98037775234604,-14.075492240787334,-22.45141643396655
1605290410.2159972,18.725928679331684,-108.36887196154724,-57.07704170290681,-43.45117729457538,-37.17351631952389,-19.83072849622336,-16.696180178530525,-18.871522453650687,-9.082482215609948,-16.756130556191316,-54.12234451819635,-37.8329704737926,-15.856874891279436,-9.150996932936566,-12.045743739986236,-19.17127434195465
1605290410.2199972,72.27874460975055,-75.54175802243073,-32.257585351338946,-20.72998416113524,-21.851912657358632,-3.3101172808422668,0.1156185854887013,-1.7514074616616762,7.438128999771146,1.6657640650034644,-30.00516401922633,-15.8140531929503,4.260758983749173,6.949961638818983,-2.924721995880033,-5.1514503089951615
1605290410.223997,123.56201052872512,-47.142407690547,-15.274499794003171,-12.319802609292712,-5.793775783932219,0.7836370794232401,10.726835431448874,2.4793763332570693,18.26345433737701,7.917732021057481,-10.27292542915996,-6.975654657816403,15.651330739299642,7.75500956740676,2.093981048294835,0.3639844357976965
1605290410.227997,154.33368294804305,-15.968211306935194,-2.556455390249454,-6.042141634241213,2.3337825589380032,3.250166903181537,10.21297505149923,2.44511897459376,14.272472053101426,3.798284641794492,2.6420987869077903,2.599277088578653,12.268416571297813,4.56907521171896,4.1408582284275885,-0.5523999084458374
1605290410.231997,168.22504188601513,5.022985214007813,-1.503041611352681,1.6058136873426725,-1.974080292973189,6.830060883497398,-2.462247653925352,1.8970012359808048,0.843587457084032,-0.706558022430731,2.736306523231892,9.390798443579795,1.9912089723049065,6.573130693522576,3.292988601510674,0.2269550011444578
1605290410.235997,170.28904774547954,5.639617669947387,-1.5886850080109551,5.750954085603143,-3.352938979171404,5.082935591668605,-9.93891618219269,-2.2481391622796667,-1.6229423666742648,-1.931258594644052,2.6078414282444804,6.187735408560342,-0.0642325474936744,7.969118059052445,6.247685786221134,3.815413321126147
1605290410.239997,174.13443625543604,14.246779034103945,15.608509040970503,11.857328267338094,7.095555413138048,3.8924923781185936,4.157986907759244,-1.742843121995849,12.559604119935942,3.746898603799528,18.34909773403528,9.47644184023807,18.10929622339211,10.632627695124771,13.287572991531274,4.937341817349539
1605290410.2439969,178.16824023804077,36.83950707255668,29.217244769970275,14.221086015106462,8.234612588693095,3.618433508812116,16.105240741588496,2.582148409246998,18.563206225680965,9.150996932936629,28.446454200045807,17.329941313801815,29.414224582284305,11.36916090638593,10.598370336461464,1.0405672693980628
1605290410.2479968,159.9775827878233,40.70202426184485,21.37230963607236,7.549465415426901,0.5952216067750369,0.8778448157473417,7.429564660105318,1.9226942549782868,10.07594561684599,7.677930510414313,20.198995101854003,12.405446005951047,12.679504875257528,4.671847287708888,5.519716914625803,1.5030416113527434
1605290410.2519968,133.0170415197986,33.670701396200535,14.49514488441294,9.056789196612527,3.1388304875257806,5.005856534676158,-1.006309910734691,3.2758599221790194,7.412435980773663,7.68649485008014,14.880540169375172,9.133868253604977,-0.6637363241015939,4.192244266422553,10.624063355458944,10.367133165484123
1605290410.2559967,124.26428638132298,43.58820672922869,20.584390386816235,20.13904472419321,8.457285420004608,13.056335820553931,0.2440836804761126,8.962581460288426,12.388317326619394,11.394853925383414,20.85844925612271,19.07706660563061,4.885955779354574,12.551039780270116,13.758611673151782,12.953563744564004
1605290410.259997,118.42340672922867,53.95105772487986,30.02229269855805,21.654932845044662,7.874910322728343,10.786785809109666,1.84561519798584,6.050705973907103,14.19539299610898,8.38877070267799,28.720513069352283,22.96527681391625,8.928324101625117,11.925842984664714,6.076398992904585,3.746898603799528
1605290410.2639966,101.14913362325476,52.90620828564892,35.6918855573358,16.096676401922668,3.66981954680708,2.924721995880095,1.2974974593728852,-1.4345268940260616,11.257824490730174,0.5181425497825901,34.23594781414514,19.33399679560544,12.7651482719158,7.0869910734722215,-1.2546757610436858,-4.115165209430044
1605290410.2679963,83.73783108262764,50.25126298924242,33.15684101625089,11.531883360036652,-1.2118540627145489,-1.134775005722102,-0.1070542458228115,-4.1066008697642165,9.01396749828339,-0.2869053788051874,32.660109315632894,17.15009018081944,19.29973943694212,8.029068436713237,1.0405672693980628,-0.9634882124055536
1605290410.2719965,63.78291966124974,38.88638425268943,22.768297001602228,1.8370508583200127,1.374576516365332,-7.857781643396627,-1.5116059510185085,-9.253769008926495,10.752528450446356,1.7085857633326014,23.08517756923784,6.2048640878919965,14.05836356145574,1.4259625543602965,9.570649576562174,6.16204238956286
1605290410.2759964,35.22941121538112,24.82373852140081,9.519263538567207,-8.003375417715693,1.169032364385474,-16.747566216525488,-4.457738796063141,-19.66800604257264,9.108175234607492,-6.290507484550209,10.093074296177646,-7.352485603112809,2.659227466239445,-10.80391448844126,10.067381277180164,3.626997848477944
1605290410.2799964,8.936888441290943,29.131601373312,-1.057695948729655,-9.17668995193405,-12.422574685282642,-18.708799999999968,-11.745991851682277,-24.16428436713204,0.5695285877775546,-16.54202206454563,0.680865003433311,-4.226501625085801,0.3639844357976965,-10.70114241245133,2.385168596932968,-5.596795971618188
1605290410.2839963,-5.35699446097502,36.38559707026783,-0.7579440604256955,-7.789266926070007,-15.283064133669,-13.929898466468268,-13.407473746852794,-21.68919020370791,0.25264802014194,-15.231678095674036,3.001801052872542,4.389224078736584,2.248139162279729,-4.877391439688685,4.654718608377234,-4.997292195010268
1605290410.2879963,-8.397335042343753,31.426844403753748,8.971145799954254,-4.671847287708826,1.0148742504005803,-9.03966051728081,-5.305608422980056,-19.03424490730141,9.90465882352944,-8.431592401007064,12.936435065232349,3.147394827191608,0.6037859464408643,-5.879419180590492,15.497172625314748,4.543382192721477
1605290410.2919962,-10.949508262760324,27.20462494850083,16.25083451590756,2.41086161593045,8.85124504463267,-6.093527672236178,-0.1584402838177761,-16.858902632181245,14.281036392767254,-6.8214965438315085,16.507764705882384,1.6657640650034644,-1.357447837033615,-6.761546166170717,14.443758846417976,7.044169375143084
1605290410.2959962,-22.519931151293168,27.28170400549328,16.730437537193897,3.764027283131182,5.536845593957458,-6.247685786221072,-0.5010138704508729,-15.822617532616126,13.535938841840268,-6.384715220874311,14.72638205539028,4.757490684367163,0.1926976424811481,-4.466303135728968,6.992783337148119,2.0597236896315256
1605290410.299996,-34.87827328908214,31.281250629434684,12.713762233920836,-0.9035378347447616,-0.2098263218127406,-7.669366170748423,-4.569075211718897,-15.197420737010724,11.000894300755352,-2.43655463492787,13.304701670862928,8.217483909361441,2.9418506752117497,-0.869280476081452,4.723233325703854,0.4239348134584884
1605290410.303996,-42.98013861295488,37.44757518883043,6.787239185168262,-0.6637363241015939,-11.009458640421116,-7.326792584115327,-13.570196200503515,-13.561631860837688,4.149422568093416,-0.54383556878001,9.733372030212896,10.752528450446356,2.582148409246998,4.5005604943923405,3.498532753490532,1.657199725337637
1605290410.307996,-52.255318471045975,31.966397802700875,5.639617669947387,1.4859129320210884,-18.20350395971615,-7.078426733806332,-15.240242435339862,-13.047771480888043,-0.8864091554131068,-5.905112199587975,6.633081071183368,12.00292204165716,1.1947253833829563,5.733825406271489,-0.8007657587548326,-3.181652185854855
1605290410.311996,-57.77075321583883,23.10230624856949,9.844708445868651,0.1841333028153207,-11.317774868390904,-7.635108812085114,-6.598823712519996,-15.35157885099562,-0.6123502861066293,-12.268416571297749,8.714215609979432,9.519263538567207,1.6743284046692917,-0.1584402838177761,-1.6229423666742648,-10.144460334172548
1605290410.315996,-55.08155056076902,27.80412872510875,14.803461112382726,-0.7322510414282133,0.638043305104174,-6.598823712519996,-1.8370508583199503,-17.83523735408557,1.7771004806592208,-12.82509864957653,14.015541863126604,3.601304829480461,2.5136336919203788,-5.785211444266391,4.911648798352057,-8.560057495994474
1605290410.319996,-53.14600979629202,25.40611361867707,14.717817715724452,-0.0128465094987099,5.494023895628321,-5.219965026321781,-3.49853275349047,-18.006524147402118,3.5584831311513243,-9.347976745250598,13.287572991531274,-1.5287346303501632,3.6098691691462887,-4.885955779354512,10.332875806820812,-2.522198031586144
1605290410.3239958,-60.48564888990612,10.392826184481605,2.256703501945556,0.25264802014194,-5.1171929503318525,-3.335810299839749,-8.003375417715693,-12.748019592584084,-1.4944772716868535,-4.132293888761699,0.9977455710689256,-0.6723006637674213,1.7085857633326014,1.640071046005982,2.068288029297353,0.843587457084032
1605290410.3279958,-72.4072097047379,13.082028839551414,-7.969118059052383,1.357447837033677,-21.09825076676582,0.089925566491219,-10.889557885099531,-4.671847287708826,-7.5751584344243215,1.0405672693980628,-7.797831265735835,5.29704408331429,-3.481404074158815,6.6587740901808505,-11.172181094071838,-1.1861610437170664
1605290410.3319955,-74.04299858091093,22.91389077592129,1.5715563286793628,1.4430912336919517,-17.132961501487724,0.2954697184710771,-5.691003707942289,-3.4043250171663684,-2.590712748912764,-0.1070542458228115,0.6894293430991385,6.46179427786682,-4.868827100022857,2.6420987869077903,-9.67342165255204,-5.999319935912077
1605290410.3359957,-59.911838132295685,17.77528697642484,11.883021286335577,1.0148742504005803,-1.220418402380376,-2.213881803616357,-0.4496278324559083,-7.51520805676353,3.5499187914854966,-5.32273710231171,11.1721810940719,3.190216525520745,-3.344374639505576,-3.3871963378347134,0.7408153810941029,-6.992783337148057
1605290410.3399956,-49.30918562600134,14.812025452048552,5.451202197299184,2.025466330968216,-0.1926976424810857,-2.076852368963118,-7.275406546120362,-8.988274479285845,0.4239348134584884,-5.39125181963833,6.684467109178333,2.7106135042344097,-6.68446710917827,-1.9655159533073616,1.9312585946441143,-2.950415014877515
1605290410.3439956,-56.13496433966579,20.07909434653242,-2.111109727626428,3.4642753948272227,-9.099610894941602,-0.603785946440802,-15.856874891279436,-8.037632776379002,-3.695512565804501,-2.385168596932905,-1.7342787823300214,3.8924923781185936,-7.660801831082596,3.2330382238498823,-4.115165209430044,-0.7665084000915229
1605290410.3479955,-62.82371361867701,19.590926985580253,-2.4708119935911794,5.913676539253864,-9.185254291599875,1.8284865186541848,-15.197420737010724,-5.88798352025632,-2.5735840695811087,0.4239348134584884,-2.3337825589379406,4.885955779354574,-0.9891812314030358,7.72075220874345,-5.451202197299121,0.2783410391394223
1605290410.3519957,-56.04075660334169,19.950629251545006,0.5523999084458997,8.200355230029786,-5.691003707942289,6.19629974822617,-9.63916429388873,-1.7171501029983665,0.843587457084032,4.055214831769314,1.0576959487297175,9.71624335088124,2.9418506752117497,10.97520128175787,-3.2244738841839924,1.6486353856718097
1605290410.3559954,-49.942946761272566,19.42820453192953,5.656746349279042,3.421453696498085,-4.260758983749111,4.560510872053133,-4.894520119020339,-2.8990289768825503,5.142885969329397,2.8305142595559936,3.6098691691462887,9.159561272602456,0.7408153810941029,6.872882581826536,-1.4088338750285794,-0.9035378347447616
1605290410.3599954,-49.16359185168227,10.50416260013736,9.78475806820786,-2.924721995880033,-0.1926976424810857,-0.5523999084458374,-0.3725487754634616,-6.042141634241213,9.159561272602456,0.578092927443382,6.5645663538567485,2.6420987869077903,0.9806168917372708,0.8178944380865497,2.804821240558512,-2.6934848249026926
1605290410.3639953,-42.23504106202789,6.795803524834088,9.133868253604977,-0.218390661478568,4.646154268711406,3.087444449530816,2.453683314259587,-1.1262106660562743,11.155052414740243,6.675902769512505,9.553520897230518,2.7705638818952014,5.125757289997742,4.312145021744137,7.626544472419349,3.087444449530816
1605290410.3679953,-34.15030441748681,12.045743739986298,6.3333291828794085,2.796256900892684,3.6098691691462887,8.722779949645258,-2.70204916456852,0.9977455710689256,6.872882581826536,7.669366170748486,8.029068436713237,5.459766536965011,6.847189562829054,9.399362783245625,6.6587740901808505,7.395307301442008
1605290410.3719952,-38.62088972304872,13.073464499885588,-0.1070542458228115,-1.6400710460059198,-3.695512565804501,3.1045731288624707,-14.349551110093811,-7.737880888075042,-3.19878086518651,-5.990755596246249,1.066260288395545,0.8864091554131691,3.2587312428473645,4.7317976653696805,-1.7171501029983665,0.1327472648203561
1605290410.3759952,-45.84919240100706,9.656292973220449,-5.930805218585457,-5.125757289997679,-11.574705058365726,-2.6934848249026926,-16.41355696955822,-11.942971663996303,-6.830060883497336,-13.467424124513586,-3.027494071869962,-1.879872556649088,-0.5010138704508729,-0.1926976424810857,-8.294562966353825,-7.343921263446981
1605290410.379995,-41.44712181277177,6.418972579537682,-2.907593316548378,-1.9826446326390168,-13.398909407186968,0.6209146257725191,-7.1126840924696415,-4.714668986037964,0.2440836804761126,-4.166551247425009,-0.4753208514533906,2.3252182192721755,0.3896774547951788,3.678383886472908,-5.125757289997679,-5.2799154039825735
1605290410.383995,-32.17194195468067,3.044622751201679,2.556455390249516,-0.3639844357976342,-8.345949004348789,3.47283973449305,-1.9826446326390168,0.415370473792661,6.710160128175815,6.4018439002060274,3.147394827191608,4.286452002746655,1.5030416113527434,7.583722774090211,1.2032897230487836,-0.4068061341267713
1605290410.387995,-27.25601098649573,1.5030416113527434,1.4859129320210884,-3.181652185854855,-3.190216525520683,0.2012619821469755,-4.29501634241242,-1.888436896314915,6.504615976195956,8.508671457999572,3.618433508812116,2.0768523689631806,-0.1755689631494309,5.3313014419776,-0.1498759441519487,-0.2954697184710148
1605290410.391995,-22.896762096589576,2.427990295262105,-1.9483872739757069,-3.952442755779323,-3.99526445410846,-2.9675436942091697,-6.710160128175752,-5.271351064316746,1.7942291599908755,4.629025589379752,2.205317463950592,1.0833889677271995,2.393732936598795,3.7725916227970098,-5.382687479972502,-2.4536833142595245
1605290410.395995,-17.98083112840464,2.402297276264622,-4.303580682078247,-2.4279902952620422,-7.643673151750941,-4.963034836346958,-9.262333348592325,-8.24317692835886,-3.9181853971160137,-0.9035378347447616,0.1327472648203561,-0.0471038681620196,6.1363493705653775,4.166551247425071,-4.748926344701273,-3.626997848477881
1605290410.3999949,-17.64682188143737,-0.8093300984206601,-7.600851453421804,-5.699568047608117,-8.260305607690515,-5.631053330281498,-10.487033920805644,-10.5041626001373,-5.442637857633295,-5.05724257267106,-2.9418506752116875,-3.7297699244678095,1.4259625543602965,0.5695285877775546,-0.3125983978026697,-3.635562188143709
1605290410.4039948,-17.389891691462545,-4.697540306706308,-9.519263538567149,-8.423028061341236,-6.547437674525032,-2.376604257267078,-8.234612588693032,-9.013967498283328,-1.1690323643854117,-5.048678233005233,-6.067834653238696,-6.18773540856028,-3.7297699244678095,-1.87130821698326,1.6143780270084995,-0.8607161364156245
1605290410.4079947,-9.776193728541967,-2.445118974593697,-7.523772396429357,-1.819922178988296,-4.123729549095872,3.3786319981689483,-4.860262760357029,-3.4043250171663684,3.567047470817152,0.5181425497825901,-6.7529818265048895,-3.010365392538307,-2.70204916456852,2.5050693522545515,3.5413544518196693,3.8068489814603192
1605290410.4119947,-1.3745765163652697,5.434073517967529,-1.0919533073929648,4.406352758068239,1.0405672693980628,6.932832959487327,-0.1070542458228115,2.205317463950592,9.142432593270804,6.744417486839124,-1.8541795376516053,2.0511593499656984,-1.0148742504005182,5.571102952620768,8.200355230029786,5.117192950331915
1605290410.4159946,0.8864091554131691,6.992783337148119,5.853726161593072,3.1217018081941257,1.2032897230487836,5.648182009613215,5.759518425268971,3.9867001144426952,10.889557885099595,5.810904463263936,2.864771618219303,5.887983520256382,6.984218997482292,6.3932795605402,7.275406546120425,-0.4068061341267713
1605290410.4199946,-1.6315067063400923,-0.4581921721217358,1.91412991531246,1.802793499656703,-12.054308079652062,0.5609642481117272,3.455711055161395,1.7342787823300836,3.1131374685282984,-1.6143780270084376,-2.2481391622796667,5.622488990615732,17.689643579766567,9.159561272602456,-5.331301441977538,-7.4124359807736
1605290410.4239943,-8.234612588693032,-8.440156740672892,-11.018022980086943,-2.6078414282444182,-21.92042737468525,-3.883928038452704,-6.204864087891934,-2.873335957885068,-4.166551247425009,-5.134321629663507,-11.549012039368243,-1.8370508583199503,7.78926692607007,5.502588235294149,-13.193365255207109,-7.729316548409216
1605290410.4279945,-9.133868253604913,-14.229650354772229,-14.537966582742014,-13.595889219500998,-11.489061661707453,-6.504615976195894,-10.007430899519308,-7.9006033417257635,-0.2012619821469132,-3.292988601510612,-9.596342595559593,-11.848763927672204,-8.388770702677927,-4.697540306706308,-1.8370508583199503,-0.5866572671091471
1605290410.4319944,3.481404074158877,-20.19043076218811,-7.797831265735835,-19.35968981460285,-0.0128465094987099,-8.765601647974334,-5.750954085603081,-11.437675623712488,4.774619363698818,-3.609869169146226,-1.4345268940260616,-14.529402243076186,-3.875363698786877,-7.74644522774087,8.063325795376548,1.357447837033677
1605290410.4359944,11.043715999084489,-24.481164934767648,-5.451202197299121,-17.295683955138443,-2.119674067292255,-10.444212222476509,-4.440610116731486,-12.088565438315372,3.395760677500604,-5.85372616159301,-1.5458633096818182,-13.578760540169345,1.2032897230487836,-6.239121446555244,0.9121021744106512,-4.414917097734004
1605290410.4399943,4.414917097734066,-19.376818493934508,-5.596795971618188,-14.666431677729426,-7.832088624399144,-8.80842334630347,-6.110656351567833,-9.587778255893763,1.9997733119707333,-4.577639551384725,-4.277887663080765,-9.844708445868587,-1.6486353856717473,-4.012393133440115,-5.605360311284016,-7.044169375143022
1605290410.4439943,5.271351064316808,-4.337838040741557,-2.881900297550896,-8.885502403295916,-15.77979583428699,-4.7574906843671005,-5.416944838635812,-4.526253513389761,2.1624957656214545,-1.8627438773174327,-2.43655463492787,2.899028976882613,6.230557106889479,4.945906157015366,-6.5902593728541685,-6.864318242160646
1605290410.4479942,15.651330739299642,2.1368027466239723,-2.3937329365987328,-0.1070542458228115,-18.43474113069349,-0.0299751888303648,-4.217937285419973,-0.9634882124055536,5.108628610666087,1.04913160906389,-1.8370508583199503,10.170153353170091,10.367133165484123,11.93440732433054,-5.211400686655954,-3.3957606775005407
1605290410.4519942,19.231224719615504,-7.986246738384038,-1.562991989013473,-0.5695285877774923,-0.4153704737925987,1.854179537651668,-1.9226942549782249,-3.8582350194552215,16.259398855573387,5.322737102311772,-1.049131609063828,-2.624970107576073,0.2355193408102852,4.903084458686229,10.598370336461464,7.9862467383841
1605290410.455994,22.06602114900437,-14.743510734721871,2.2224461432822467,-6.564566353856686,14.966183566033449,-0.3382914168001519,2.804821240558512,-7.797831265735835,24.335571160448644,6.12778503089955,1.8370508583200127,-14.032670542458195,-2.316653879606286,-3.378631998168886,25.71442984664686,13.26187997253379
1605290410.459994,23.676117006179933,-8.354513344014617,-1.263240100709513,-4.517689173723933,2.616405767910308,0.5181425497825901,-0.3382914168001519,-3.292988601510612,14.272472053101426,4.817441062027955,-4.157986907759181,-5.579667292286533,-4.860262760357029,0.0042821698329448,13.66440393682768,8.48297843900209
1605290410.463994,15.09464866102086,-0.0385395284961922,-4.072343511100907,1.4773485923552612,-11.018022980086943,4.07234351110097,-7.609415793087631,1.0576959487297175,1.4859129320210884,0.6466076447700013,-11.309210528725076,4.5005604943923405,-9.741936369878658,5.237093705653498,-0.6123502861066293,4.586203891050615
1605290410.467994,17.869494712748942,2.7876925612268564,10.726835431448874,-0.9891812314030358,-0.706558022430731,-0.2355193408102228,1.3831408560311595,-6.110656351567833,7.917732021057481,-9.587778255893763,2.924721995880095,3.926749736781903,11.283517509727655,3.2073452048524,10.966636942092045,-0.7493797207598681
1605290410.471994,38.74079047837037,0.7408153810941029,21.14107246509501,-4.080907850766734,15.59138036163885,-3.909621057450186,12.30267392996112,-11.377725246051696,18.83726509498744,-10.247232410162477,19.23978905928133,1.8713082169833224,29.422788921950133,1.2803687800412304,25.21769814602887,1.4430912336919517
1605290410.475994,39.02341368734267,-0.8607161364156245,-0.1926976424810857,-0.1926976424810857,8.65426523231864,1.6058136873426725,-2.7363065232318293,-5.562538612954878,9.18525429159994,3.0531870908675063,3.764027283131182,3.481404074158877,4.937341817349539,5.125757289997742,17.167218860151095,15.28306413366906
1605290410.4799938,10.350004486152468,-3.9181853971160137,-25.594529091325214,-6.247685786221072,-12.037179400320408,-2.5136336919203166,-19.582362645914365,-6.924268619821438,-3.969571435110978,3.2844242618448467,-20.6529051041428,-0.4239348134584261,-21.41513133440144,1.0748246280613725,2.539326710917861,13.904205447470847
1605290410.4839938,-5.528281254291568,-16.60197244220642,-22.57988152895396,-22.54562417029065,-11.771684870679758,-17.132961501487724,-11.506190341039108,-18.93147283131148,5.639617669947387,-7.095555413137986,-19.55666962691688,-11.5661407186999,-17.090139803158586,-11.985793362325444,5.408380498970047,1.2632401007095757
1605290410.4879937,5.228529365987671,-25.05497569237809,-7.549465415426839,-23.11087058823526,1.537298970016053,-18.73449301899745,-1.8456151979857776,-20.781370199130205,17.064446784161166,-5.476895216296604,-8.697086930647714,-15.05182696269166,-3.053187090867444,-11.480497322041623,15.762667154955398,1.9997733119707333
1605290410.4919937,16.670487159533103,-14.957619226367555,-4.9887278553444405,-10.880993545433704,-4.800312382696237,-12.311238269626886,-6.41897257953762,-14.272472053101364,6.187735408560342,-3.3700676585030584,-8.962581460288364,-5.32273710231171,6.359022201876891,0.7750727397574126,11.326339208056794,2.453683314259587
1605290410.4959936,18.725928679331684,-2.385168596932905,-6.915704280155611,-5.168578988326817,-14.126878278782298,-11.514754680704934,-9.236640329594842,-13.099157518883008,-3.4043250171663684,-7.369614282444464,-10.29861844815744,1.8370508583200127,6.444665598535165,3.164523506523263,2.8305142595559936,-2.419425955596215
1605290410.4999936,20.781370199130265,0.4924495307851078,-3.292988601510612,-3.746898603799465,-4.149422568093354,-8.97971013962002,-7.51520805676353,-13.75861167315172,2.11110972762649,-5.125757289997679,-6.890011261158128,-0.5010138704508729,-3.036058411535789,-1.6400710460059198,5.648182009613215,2.9675436942092324
1605290410.5039935,23.02522719157705,5.245658045319326,0.946359533073961,-5.02298521400775,3.686948226138736,-6.1020920119020055,-8.148969192034759,-13.707225635156757,4.697540306706371,-5.6738750286106345,-5.596795971618188,-1.3745765163652697,-4.714668986037964,-3.2844242618447845,10.435647882810745,5.8622905012589
1605290410.5079937,24.31844248111699,14.203957335774808,3.327245960173984,-7.917732021057419,1.6315067063401547,-6.0335772945753865,-8.234612588693032,-13.407473746852794,2.093981048294835,-7.78070258640418,-4.260758983749111,3.6441265278095982,-1.7342787823300214,-2.522198031586144,12.576732799267598,3.849670679789456
1605290410.5119934,26.07413211261161,16.34504225223166,6.067834653238759,-1.9997733119706715,1.374576516365332,-3.746898603799465,-8.799859006637643,-10.195846372167512,3.626997848477944,0.638043305104174,-0.3639844357976342,8.58575051499202,-5.374123140306675,2.248139162279729,13.022078461890624,8.397335042343816
1605290410.5159934,22.10884284733352,7.883474662394171,12.508218081940978,2.761999542229374,-1.057695948729655,-4.774619363698755,-7.069862394140504,-10.76109279011212,4.226501625085863,-0.7750727397573504,5.708132387274007,8.739908628976913,3.567047470817152,6.46179427786682,5.759518425268971,2.085416708629008
1605290410.5199933,15.25737111467158,2.153931425955628,19.43676887159536,-1.006309910734691,-2.3337825589379406,-8.337384664682961,0.3040340581369045,-15.068955642023314,4.903084458686229,-12.473960723277608,10.880993545433768,8.191790890363958,18.39191943236441,4.354966720073274,-0.4239348134584261,-10.726835431448812
1605290410.5239933,13.690096955825162,9.022531837949218,14.760639414053587,1.5116059510185709,-1.3146261387044778,-3.1217018081940635,0.578092927443382,-11.634655436026518,5.956498237583002,-8.157533531700587,6.538873334859266,12.199901853971191,8.05476145571072,4.089472190432624,0.8692804760815143,-5.3484301213091925
1605290410.5279932,9.733372030212896,14.109749599450703,3.4043250171664305,5.956498237583002,-4.509124834058105,0.4581921721217981,-7.540901075761012,-7.677930510414251,2.231010482948074,-1.1090819867246198,-2.359475577935423,14.05836356145574,-6.924268619821438,5.785211444266453,-0.2869053788051874,1.31462613870454
1605290410.5319932,1.109081986724682,5.040113893339468,1.6657640650034644,-2.976108033874997,-3.5756118104829167,-5.55397427328905,-8.080454474708139,-13.398909407186968,3.1388304875257806,-7.386742961776118,-3.2844242618447845,6.984218997482292,-1.6486353856717473,1.4002695353628145,0.3725487754635239,-5.228529365987609
1605290410.535993,-0.7151223620965584,-2.445118974593697,4.586203891050615,-10.255796749828304,-0.3468557564659793,-9.185254291599875,-3.481404074158815,-17.278555275806788,10.632627695124771,-9.776193728541967,-0.6123502861066293,3.018929732204197,3.061751430533334,-1.974080292973189,4.671847287708888,-7.309663904783672
1605290410.539993,-1.9226942549782249,0.7493797207599304,2.2224461432822467,-5.802340123598046,-7.883474662394109,-8.465849759670373,-4.072343511100907,-15.14603469901576,9.193818631265769,-7.686494850080078,-3.2587312428473023,6.847189562829054,0.6637363241016562,0.8350231174182046,0.7065580224307934,-5.571102952620706
1605290410.543993,-8.748472968642679,4.551946532387305,-2.6934848249026926,-2.684920485236865,-14.169699977111437,-9.262333348592325,-6.427536919203448,-14.041234882124025,2.761999542229374,-8.363077683680444,-6.341893522545173,8.089018814374029,1.91412991531246,2.3252182192721755,-5.177143327992644,-6.247685786221072
1605290410.547993,-9.296590707255634,1.0234385900664078,-3.952442755779323,-4.680411627374654,-5.965062577248767,-8.954017120622536,-7.789266926070007,-15.00900526436252,5.545409933623286,-4.980163515678614,-6.693031448844097,4.372095399404929,-0.6551719844357665,0.7836370794232401,-0.4153704737925987,-0.3125983978026697
1605290410.551993,-3.935314076447668,-10.752528450446295,0.1413116044861835,-9.459313160906357,4.706104646372198,-11.745991851682277,-5.913676539253802,-21.26097322041654,13.022078461890624,-6.324764843213519,-4.012393133440115,-1.7942291599908131,-3.901056717784359,-4.286452002746593,7.498079377431937,2.864771618219303
1605290410.5559928,-6.22199276722359,-25.894280979629173,0.3554200961318691,-18.0322171663996,7.035605035477257,-16.824645273517934,-2.582148409246936,-28.840413824673806,14.649302998397832,-16.713308857862177,-4.235065964751628,-8.73990862897685,3.5413544518196693,-9.159561272602394,10.803914488441322,-3.9610070954451504
1605290410.5599928,-24.592501350423404,-36.97653650720986,-13.475988464179414,-21.046864728770853,-4.543382192721415,-13.05633582055387,-5.399816159304157,-24.47260059510182,7.532336736095247,-18.64884962233917,-19.248353398947096,-8.611443533989439,4.817441062027955,-4.449174456397314,6.170606729228688,-9.844708445868587
1605290410.5639927,-56.90575490959026,-54.64476923781182,-30.04798571755547,-21.218151522087403,-19.256917738612923,-6.059270313572869,-10.358568825818232,-14.957619226367555,-0.4410634927900809,-14.555095262073667,-40.29950029755089,-6.3590222018768285,-6.007884275577904,2.273832181277211,-0.5352712291141826,-9.716243350881175
1605290410.5679927,-82.5302591897459,-89.41598828107115,-38.37252387273973,-29.431353261615897,-17.83523735408557,-8.166097871366414,-5.973626916914594,-15.265935454337344,3.96957143511104,-15.642766399633752,-50.72230167086286,-16.002468665598503,-6.521744655527549,0.0385395284962545,3.9952644541085225,-8.191790890363896
1605290410.5719926,-95.72790661478597,-127.56155715266648,-51.4845279011215,-41.00177615014874,-9.861837125200244,-14.04979922178985,-0.4667565117875632,-17.89518773174636,14.812025452048552,-12.422574685282642,-60.006045868619786,-35.03243140306703,-2.590712748912764,-5.399816159304157,12.696633554589182,-3.23303822384982
1605290410.5759926,-111.47772726024256,-151.79863840695808,-69.17845365072095,-47.13384335088117,-11.608962417029035,-14.966183566033385,-5.5111525749599135,-14.400937148088776,12.174208834973708,-2.710613504234347,-71.55934007782098,-51.19334035248337,-13.210493934538764,-8.27743428702217,8.842680704966842,3.7383342641337
1605290410.5799923,-113.98707878233002,-159.54080146486606,-72.01325008010983,-53.28303923094526,-13.613017898832652,-14.734946395056046,-14.794896772716836,-13.52737450217438,-0.3297270771343245,-0.0642325474936744,-67.12301213092238,-62.60104078736549,-20.738548500801063,-11.146488075074355,2.4708119935912416,6.1363493705653775
1605290410.5839925,-82.48743749141677,-155.9866005035477,-61.95871531242844,-61.402033234149656,-11.89158562600134,-19.017116227969755,-19.402511512931987,-18.43474113069349,-5.502588235294086,-5.245658045319264,-48.16156411078047,-73.61478159761955,-12.25985223163192,-15.385836209658928,6.290507484550271,3.130266147859953
1605290410.5879924,-35.931687067978906,-142.08667722590977,-48.392801281757805,-60.271540398260434,-10.838171847104569,-22.11740718699928,-18.049345845731256,-20.31033151750969,-1.9141299153123967,-6.273378805218554,-25.61165777065687,-79.24155275806817,-2.5050693522544893,-17.484099427786646,11.626091096360753,2.453683314259587
1605290410.5919924,11.40341826504924,-116.23950011444262,-27.67566363012128,-47.74191146715492,-4.920213138017822,-17.70677225909816,-11.077973357747736,-15.300192813000654,1.759971801327566,-1.460219913023544,-0.055668207827847,-73.07522819867243,2.359475577935485,-16.17375545891505,10.624063355458944,3.352938979171466
1605290410.5959923,59.92040247196157,-86.64970656900888,-5.58823163195236,-36.99366518654151,1.3403191577020224,-13.62158223849848,-4.200808606088319,-11.69460581368731,2.736306523231892,-0.7493797207598681,21.62067548638135,-63.00356475165938,8.208919569695613,-15.300192813000654,6.478922957198474,-2.6592274662393827
1605290410.5999925,92.74751641107808,-62.66099116502629,5.305608422980118,-32.30040704966808,4.466303135729031,-13.12485053788049,-2.4279902952620422,-12.002922041657095,3.241602563515709,-1.134775005722102,30.416252323186114,-59.13248322270539,12.49965374227515,-15.94251828793771,8.208919569695613,-4.226501625085801
1605290410.6039922,108.8399106431678,-39.11762142366671,8.474414099336263,-22.54562417029065,9.005403158617563,-6.633081071183305,-3.6783838864728455,-8.123276173037276,6.376150881208545,6.633081071183368,33.77347347219046,-50.78225204852365,13.493117143511132,-10.144460334172548,15.077519981689203,7.832088624399207
1605290410.6079922,122.26023089951936,-12.054308079652062,13.373216388189547,-9.10817523460743,7.361049942778698,3.001801052872542,-4.072343511100907,-0.6979936827649036,8.106147493705684,12.285545250629465,38.55237500572216,-29.24293778896769,12.311238269626948,-0.3468557564659793,10.60693467612729,14.152571297779842
1605290410.611992,126.85928130006867,9.68198599221793,19.80503547722594,-1.8027934996566408,1.2032897230487836,4.406352758068239,-4.928777477683649,-0.1327472648202938,4.389224078736584,6.487487296864302,41.12167690547039,-12.422574685282642,6.530308995193439,0.6551719844358288,-2.316653879606286,7.652237491416831
1605290410.615992,120.0249382467384,22.42572341496913,22.143100205996824,0.9549238727397884,1.1433393453879916,0.2440836804761126,-8.679958251316059,-6.076398992904523,-1.4345268940260616,-0.0385395284961922,38.047078965438345,-9.913223163195209,-1.3660121766994424,-4.372095399404866,-6.042141634241213,3.190216525520745
1605290410.619992,111.08376763561458,28.74620608834977,18.597463584344272,5.108628610666087,-1.991208972304844,-1.5372989700159907,-11.814506569008897,-8.54292881666282,-5.682439368276462,0.4924495307851078,31.82080402838181,-7.198327489127915,-4.354966720073212,-3.061751430533272,-5.810904463263873,0.903537834744824
1605290410.623992,100.4725507896544,36.67678461890596,17.68107924010074,13.96415582513164,-10.015995239185136,3.155959166857436,-9.570649576562111,-2.1025453879606006,-5.35699446097502,7.412435980773663,29.92808496223395,4.774619363698818,1.6657640650034644,7.4466933394369725,-8.859809384298435,1.0748246280613725
1605290410.627992,91.60845923552304,47.93032693980319,23.79601776150152,18.803007736324133,-4.312145021744075,8.457285420004608,-3.5156614328221245,4.260758983749173,3.3615033188372934,15.942518287937771,36.77955669489589,12.491089402609322,11.095102037079451,13.741482993820126,-3.609869169146226,8.5172357976654
1605290410.631992,87.48044751659421,52.871950926985605,30.750261570153384,13.390345067521205,8.029068436713237,4.7317976653696805,2.068288029297353,-0.1413116044861212,13.03064280155645,13.321830350194585,44.16201748683912,11.086537697413624,15.899696589608636,8.011939757381583,8.423028061341299,10.555548638132326
1605290410.6359918,77.6057638818952,52.2124967727169,31.74372497138936,10.889557885099595,7.4466933394369725,1.6828927443351192,2.385168596932968,-5.3484301213091925,11.96866468299385,4.7317976653696805,42.76603012130925,11.694605813687373,10.324311467154986,2.796256900892684,10.435647882810745,5.810904463263936
1605290410.6399918,57.7108028381781,52.94902998397806,25.86002362096593,16.867466971847136,-0.3896774547951164,6.341893522545235,-3.8667993591210488,-2.479376333257007,5.511152574959976,4.389224078736584,34.41579894712752,16.01103300526439,-0.5181425497825277,5.956498237583002,2.3423468986038305,4.980163515678676
1605290410.6439917,36.91658612954912,51.41601318379495,20.789934538796093,15.214549416342445,-2.359475577935423,4.517689173723995,-7.146941451132951,-2.9332863355458603,4.954470496681194,3.3615033188372934,31.332636667429647,14.786332433051072,1.965515953307424,6.521744655527612,-0.4753208514533906,3.7725916227970098
1605290410.6479917,26.185468528267368,52.10116035706114,22.01463511100941,10.666885053788082,-0.3982417944609439,-0.0899255664911567,-2.410861615930388,-6.975654657816403,5.271351064316808,-1.297497459372823,34.090354039826074,15.377271869993164,17.929445090409736,6.573130693522576,4.928777477683711,1.8798725566491497
1605290410.6519916,19.924936232547523,60.56272794689863,20.49874699015796,18.451869810025208,0.2954697184710771,5.005856534676158,-2.239574822613839,-3.99526445410846,-0.2954697184710148,0.4496278324559707,29.33714552529186,23.14512794689864,17.04731810482951,10.949508262760387,5.245658045319326,3.901056717784421
1605290410.6559916,3.5070970931563594,62.84084229800872,14.383808468757184,24.952203616388218,-1.991208972304844,9.305155046921524,-9.159561272602394,-1.9997733119706715,-3.798284641794429,2.153931425955628,18.21206829938204,27.02477381551845,-3.481404074158815,10.726835431448874,-0.9463595330738988,2.2224461432822467
1605290410.6599915,-13.7843046921492,51.91274488441294,11.155052414740243,19.3853828336004,-2.43655463492787,6.16204238956286,-10.5041626001373,-4.449174456397314,0.3211627374685594,0.4667565117876255,15.385836209658992,22.92245511558712,-10.29861844815744,7.061298054474739,2.3680399176013127,1.2632401007095757
1605290410.6639917,-18.20350395971615,40.71058860151067,7.95198937972079,10.829607507438803,-0.8350231174181423,2.9161576562142675,-5.519716914625741,-4.192244266422491,5.673875028610697,1.7942291599908755,16.34504225223166,17.852366033417287,-1.0405672693980004,5.965062577248829,10.015995239185198,5.8622905012589
1605290410.6679914,-23.864532478828075,33.53367196154729,2.761999542229374,3.7126412451362176,-2.290960860608804,-2.6592274662393827,-3.292988601510612,-6.915704280155611,6.076398992904585,-1.2461114213778584,11.386289585717586,11.557576379034137,3.2844242618448467,1.4773485923552612,7.181198809796323,2.9932367132067146
1605290410.671991,-34.741243854428895,32.47169384298469,2.624970107576136,2.359475577935485,-7.583722774090149,-6.915704280155611,-5.048678233005233,-10.992329961089462,3.241602563515709,-8.80842334630347,7.592287113756039,10.118767315175129,4.714668986038026,-0.6637363241015939,1.4602199130236062,-5.365558800640847
1605290410.6759913,-39.53727406729225,34.02183932249946,2.9332863355459224,3.721205584802045,-9.228075989929014,-4.123729549095872,-9.493570519569664,-9.24520466926067,0.5609642481117272,-8.303127306019652,5.716696726939834,12.825098649576592,2.839078599221821,2.6677918059052725,0.680865003433311,-5.528281254291568
1605290410.6799912,-42.68895106431675,28.317989105058395,1.4002695353628145,-1.9141299153123967,-6.299071824216036,-5.185707667658472,-12.251287891966092,-10.769657129777949,0.5352712291142449,-6.48748729686424,3.489968413824705,10.24723241016254,-3.018929732204134,0.3040340581369045,-0.5866572671091471,-3.935314076447668
1605290410.6839912,-44.050681071183305,17.706772259098223,1.5715563286793628,-7.8663459830624545,1.3917051956969868,-9.330848065918945,-10.324311467154924,-16.473507347219012,5.0572425726711225,-7.198327489127915,2.402297276264622,2.881900297550958,-5.228529365987609,-5.314172762645883,5.408380498970047,-0.3297270771343245
1605290410.6879911,-43.88795861753258,13.073464499885588,0.638043305104174,-4.517689173723933,9.219511650263248,-4.894520119020339,-5.947933897917112,-13.604453559166826,10.367133165484123,-2.993236713206652,-1.8541795376516053,1.3317548180361949,-5.759518425268909,-4.09803653009839,17.364198672465125,9.073917875944185
1605290410.691991,-55.81808377203018,16.19088413824677,-4.372095399404866,0.2098263218128029,3.721205584802045,1.5287346303502256,-1.6828927443350568,-5.88798352025632,11.24069581139852,0.9206665140764788,-11.043715999084426,6.69303144884416,-3.892492378118531,1.211854062714611,17.269990936141024,12.482525062943497
1605290410.695991,-67.6625655298695,23.941611535820584,-7.275406546120362,3.4642753948272227,-8.77416598764016,4.646154268711406,2.3423468986038305,0.9292308537423062,10.67544939345391,3.961007095445213,-15.300192813000654,14.72638205539028,4.449174456397376,8.25174126802475,10.469905241474052,8.78273032730605
1605290410.699991,-59.80050171663993,22.948148134584603,-5.750954085603081,3.267295582513192,-5.1171929503318525,5.7423897459373165,4.757490684367163,5.03154955367364,17.218604898146058,10.38426184481578,-12.619554497596672,13.835690730144227,2.804821240558512,8.594314854657847,15.3258858319982,10.358568825818296
1605290410.703991,-47.72478278782327,6.179171068894514,-4.543382192721415,-6.864318242160646,9.365105424582314,-0.646607644769939,4.115165209430106,-0.8350231174181423,25.269084184023832,11.00945864042118,-10.444212222476509,-0.4753208514533906,-8.551493156328648,-2.744870862897657,24.96933229571988,14.546530922407904
1605290410.707991,-44.60736314946209,-11.300646189059249,-7.146941451132951,-17.484099427786646,14.075492240787396,-9.930351842526862,0.5438355687800723,-13.32183035019452,23.676117006179933,3.4043250171664305,-12.448267704280124,-14.906233188372592,-10.050252597848448,-11.711734493018966,27.73561400778213,15.16316337834748
1605290410.7119908,-43.27132616159301,-14.897668848706768,-8.851245044632607,-17.89518773174636,11.925842984664714,-11.69460581368731,-1.7342787823300214,-18.14355358205536,16.97880338750289,-1.2289827420462036,-14.203957335774744,-15.908260929274402,-4.740362005035446,-10.409954863813198,27.016209475852627,12.20846619363702
1605290410.7159908,-41.72974502174407,-1.4944772716868535,-4.834569741359547,-11.83163524834055,4.457738796063203,-8.04619711604483,-1.520170290684336,-14.041234882124025,11.720298832684856,-2.599277088578591,-12.508218081940916,-1.7000214236667115,1.434526894026124,-2.8048212405584487,19.753649439230976,3.421453696498085
1605290410.7199907,-40.95039011215378,18.34053339436945,-1.60581368734261,-3.2844242618447845,-10.17015335317003,-3.455711055161333,-3.2844242618447845,-7.849217303730799,5.870854840924728,-3.601304829480399,-10.57267731746392,15.22311375600827,8.114711833371512,7.215456168459633,6.744417486839124,-5.733825406271427
1605290410.723991,-40.85618237582968,20.524440009155445,-2.890464637216723,0.4068061341268336,-11.129359395742702,-2.376604257267078,-5.185707667658472,-8.063325795376485,6.744417486839124,-2.350911238269596,-10.23010373083082,15.711281116960434,2.4965050125887243,7.352485603112871,5.793775783932281,-5.160014648660989
1605290410.7279906,-36.55688386358431,8.431592401007126,-0.7408153810940407,-4.389224078736522,2.9589793545434047,-7.146941451132951,-3.541354451819607,-16.50776470588232,15.343014511329852,-3.027494071869962,-5.579667292286533,5.425509178301701,-4.766055024032928,-1.3317548180361327,17.61256452277412,0.4838851911192803
1605290410.7319906,-24.429778896772685,6.0078842755779664,2.5221980315862065,-4.740362005035446,8.911195422293462,-7.009912016479712,-3.061751430533272,-18.42617679102766,16.413556969558282,-5.55397427328905,-0.9035378347447616,3.686948226138736,-0.0299751888303648,-1.7342787823300214,22.280129640650063,4.397788418402412
1605290410.7359903,-21.4665173723964,9.399362783245625,-1.297497459372823,2.359475577935485,5.8622905012589,0.1327472648203561,-6.410408239871793,-10.153024673838376,9.519263538567207,-3.4300180361638506,-4.688975967040482,6.2048640878919965,-3.036058411535789,2.359475577935485,14.966183566033449,7.275406546120425
1605290410.7399905,-30.95580572213317,13.715789974822645,-4.688975967040482,5.545409933623286,-4.945906157015304,2.9504150148775774,-8.534364476996993,-4.877391439688685,4.063779171435142,-2.787692561226794,-10.692578072785505,10.153024673838438,-6.273378805218554,5.108628610666087,-0.3211627374684971,1.597249347676845
1605290410.7439904,-28.24947438773172,20.344588876173063,1.0148742504005803,1.1947253833829563,-20.781370199130205,0.5352712291142449,-6.7872391851682,-6.444665598535102,1.288933119707058,-7.078426733806332,-10.27292542915996,14.640738658732005,8.962581460288426,10.118767315175129,-11.883021286335516,-8.859809384298435
1605290410.7479904,-18.62315660334169,9.056789196612527,4.1408582284275885,-9.228075989929014,-10.40139052414737,-2.5735840695811087,-3.1217018081940635,-9.236640329594842,5.622488990615732,-6.204864087891934,-8.782730327305988,0.6037859464408643,9.81045108720534,2.5478910505836887,-0.912102174410589,-2.590712748912764
1605290410.7519903,-22.168793224994246,-12.953563744563942,-3.609869169146226,-17.681079240100676,15.360143190661509,-5.005856534676096,-2.2481391622796667,-10.93237958342867,13.809997711146746,1.228982742046266,-12.7223265735866,-20.92696397344927,-10.872429205767878,-12.619554497596672,19.42820453192953,13.955591485465812
1605290410.7559905,-27.53863419546804,-14.854847150377628,-15.068955642023314,-14.212521675440572,9.870401464866132,-3.618433508812054,-7.206891828793743,-9.27089768825815,9.94748052185858,3.190216525520745,-19.80503547722588,-19.513847928587744,-17.98083112840464,-10.512726939803128,17.38132735179678,14.12687827878236
1605290410.7599902,-28.94318590066373,-7.617980132753459,-17.621128862439885,-7.472386358434393,-7.283970885786189,-0.54383556878001,-11.506190341039108,-7.172634470130433,0.4239348134584884,-0.7493797207598681,-21.774833600366183,-9.724807690547005,-14.54653092240784,-2.462247653925352,4.243630304417517,5.639617669947387
1605290410.7639902,-30.767390249484976,-3.173087846189028,-9.236640329594842,-3.9867001144426326,-1.9997733119706715,2.0425950102998707,-6.881446921492301,-4.903084458686167,0.6723006637674837,0.0471038681620819,-15.223113756008209,-6.025012954909559,-9.210947310597358,-1.1861610437170664,1.7514074616617386,7.969118059052445
1605290410.76799,-21.672061524376254,6.675902769512505,-0.3639844357976342,1.8970012359808048,5.134321629663569,5.245658045319326,0.3896774547951788,-1.0148742504005182,5.279915403982636,5.673875028610697,-7.44669333943691,2.0169019913023885,3.267295582513192,4.346402380407447,3.4043250171664305,11.326339208056794
1605290410.77199,-7.292535225452017,6.547437674525094,0.6979936827649659,3.618433508812116,5.759518425268971,1.9312585946441143,-0.4581921721217358,-4.697540306706308,5.605360311284078,3.061751430533334,-6.0335772945753865,1.2974974593728852,6.556002014190921,4.269323323415,5.005856534676158,7.934860700389136
1605290410.77599,-5.502588235294086,-5.365558800640847,-6.350457862211001,-3.789720302128602,7.909167681391653,-7.232584847791225,-10.40139052414737,-15.188856397344898,-0.912102174410589,-5.202836346990127,-11.848763927672204,-12.525346761272573,-5.314172762645883,-6.264814465552727,4.329273701075792,6.607388052185885
1605290410.77999,-10.13589599450672,-8.260305607690515,-13.818562050812512,-8.688522590981886,3.155959166857436,-9.690550331883694,-17.492663767452473,-16.473507347219012,-9.168125612268222,-6.333329182879345,-17.732465278095642,-15.094648661020797,-13.724354314488409,-9.091046555275774,-1.742843121995849,7.892039002059999
1605290410.78399,-7.720752208743388,-7.232584847791225,-7.78070258640418,-8.457285420004546,0.1755689631494932,-5.305608422980056,-9.347976745250598,-9.365105424582252,-4.414917097734004,-2.3337825589379406,-11.36059656672004,-8.560057495994474,-10.444212222476509,-5.691003707942289,-0.218390661478568,7.840652964065034
1605290410.78799,2.419425955596277,-6.847189562828991,6.025012954909621,-6.11922069123366,6.787239185168262,-0.3297270771343245,4.954470496681194,-2.2481391622796667,9.305155046921524,0.9977455710689256,1.288933119707058,-6.573130693522514,4.868827100022919,-2.1624957656213923,9.699114671549584,7.695059189745968
1605290410.7919898,9.18525429159994,-2.556455390249454,5.8622905012589,-0.7836370794231777,7.583722774090211,5.391251819638392,5.802340123598108,3.9867001144426952,11.763120531013993,5.7423897459373165,1.3488834973678498,-5.58823163195236,12.773712611581628,3.7126412451362176,7.75500956740676,10.04168825818268
1605290410.7959898,3.858235019455284,-9.210947310597358,-3.849670679789394,-0.3896774547951164,5.022985214007813,5.545409933623286,-4.697540306706308,1.8970012359808048,4.380659739070756,7.266842206454597,-6.427536919203448,-9.964609201190171,-5.02298521400775,1.1861610437171288,0.0727968871595642,13.50168148317696
1605290410.7999897,3.926749736781903,-16.93598168917369,1.0833889677271995,-4.089472190432562,9.099610894941664,0.089925566491219,-5.896547859922148,-5.699568047608117,3.635562188143771,1.6315067063401547,-1.0148742504005182,-14.25534337376971,-10.238668070496647,-4.774619363698755,3.036058411535852,12.405446005951047
1605290410.8039896,20.17330208285652,-6.804367864499854,15.891132249942808,0.9720525520714434,12.16564449530788,1.4773485923552612,4.30358068207831,-3.969571435110978,7.772138246738415,-2.40229727626456,10.692578072785563,-6.932832959487265,10.898122224765425,0.2355193408102852,10.084509956511818,7.472386358434455
1605290410.8079896,28.20665268940264,-0.0214108491645373,15.668459418631295,7.849217303730861,11.137923735408592,4.509124834058167,5.605360311284078,-1.503041611352681,6.787239185168262,-2.719177843900175,9.219511650263248,-1.9655159533073616,11.994357701991332,3.1045731288624707,10.992329961089524,7.352485603112871
1605290410.8119895,20.97835001144429,-3.190216525520683,5.93080521858552,6.19629974822617,9.073917875944185,0.3982417944610061,-4.354966720073212,-7.121248432135468,3.2073452048524,-3.2672955825131296,0.8778448157473417,-5.716696726939771,-5.1171929503318525,-1.6914570840008842,7.635108812085176,10.298618448157503
1605290410.8159895,20.413103593499688,-1.194725383382894,5.870854840924728,5.725261066605661,9.97317354085606,0.0128465094987722,-6.855753902494818,-6.68446710917827,6.864318242160708,0.1327472648203561,2.659227466239445,-6.581695033188341,-5.528281254291568,-0.7236867017623858,9.896094483863616,13.638710917830196
1605290410.8199894,26.6308141908904,-6.633081071183305,8.448721080338782,4.637589929045579,14.666431677729488,3.395760677500604,-1.888436896314915,-2.256703501945494,14.63217431906618,4.551946532387305,7.335356923781216,-9.80188674753945,-0.0899255664911567,1.0320029297322353,19.17983868162053,17.929445090409736
1605290410.8239894,26.065567772945784,-18.614592263675867,-0.0128465094987099,-6.093527672236178,9.236640329594904,0.3040340581369045,-4.945906157015304,-5.485459555962431,11.600398077363272,0.5523999084458997,1.4259625543602965,-16.7818235751888,-1.580120668345128,-2.3937329365987328,17.97226678873887,15.411529228656471
1605290410.827989,22.82824737926302,-14.306729411764676,-7.823524284733317,-11.274953170061767,-4.509124834058105,-2.907593316548378,-9.4421844815747,-7.292535225452017,2.702049164568582,-2.4536833142595245,-5.194272007324299,-13.18480091554128,-3.969571435110978,-2.556455390249454,5.536845593957458,8.097583154039857
1605290410.8319893,22.99953417257957,-2.856207278553413,-4.731797665369618,-2.847642938887586,-7.617980132753459,-0.646607644769939,-7.369614282444464,-4.397788418402349,3.352938979171466,1.905565575646632,-2.599277088578591,-4.82600540169372,-6.838625223163164,0.946359533073961,3.344374639505639,6.273378805218616
1605290410.8359892,23.068048889906187,-0.0214108491645373,0.1413116044861835,0.6037859464408643,-3.952442755779323,-2.13680274662391,-6.5902593728541685,-8.054761455710658,6.4018439002060274,1.434526894026124,2.6849204852369275,-2.6934848249026926,-5.92224087891963,1.4859129320210884,8.260305607690578,3.061751430533334
1605290410.8399892,20.061965667200763,-1.1604680247195842,-2.1624957656213923,-4.82600540169372,-2.40229727626456,-6.967090318150575,-10.40139052414737,-13.381780727855311,2.573584069581171,-2.213881803616357,2.719177843900237,-4.629025589379689,-5.040113893339406,-1.5116059510185085,5.03154955367364,-1.4516555733577166
1605290410.8439891,16.807516594186342,-5.502588235294086,-7.583722774090149,-5.502588235294086,0.946359533073961,-7.909167681391591,-12.508218081940916,-11.53188336003659,1.6143780270084995,4.192244266422553,0.0642325474937368,-5.476895216296604,-11.326339208056732,-2.479376333257007,2.128238406958145,6.093527672236241
1605290410.847989,17.081575463492822,-13.767176012817549,-5.254222384985091,-4.59476823071638,4.748926344701336,-10.409954863813198,-10.13589599450672,-10.915250904097016,9.01396749828339,8.234612588693095,1.7942291599908755,-7.986246738384038,-6.204864087891934,-0.8435874570839696,7.403871641107836,11.857328267338094
1605290410.851989,20.944092652780988,-20.51587566948956,5.648182009613215,-10.53841995880061,8.94545278095677,-16.41355696955822,-3.3700676585030584,-15.968211306935194,16.610536781872312,0.4068061341268336,10.863864866102114,-14.392372808422948,9.998866559853544,-3.7297699244678095,15.06039130235755,3.909621057450248
1605290410.855989,23.676117006179933,-23.41918681620505,9.579213916228,-14.769203753719356,14.246779034103945,-13.004949782558906,2.4622476539254143,-15.094648661020797,18.588899244678448,0.1241829251545287,16.25083451590756,-17.098704142824413,7.994811078049928,-7.386742961776118,19.98488661020832,4.826005401693783
1605290410.859989,18.04934584573132,-22.88819775692375,-0.646607644769939,-13.0649001602197,11.215002792401036,-3.5670474708170894,-0.3982417944609439,-7.969118059052383,14.203957335774808,7.532336736095247,7.712187869077622,-11.62609109636069,-3.010365392538307,-2.9332863355458603,20.241816800183138,14.46088752574963
1605290410.8639889,3.250166903181537,-24.661016067750023,-13.107721858548835,-14.906233188372592,1.211854062714611,-4.0380861524375975,-8.936888441290881,-9.425055802243044,5.716696726939834,1.5287346303502256,-5.39125181963833,-12.011486381322923,-1.5372989700159907,-0.218390661478568,15.68558809796295,9.87896580453196
1605290410.8679888,-14.709253376058562,-40.25667859922176,-22.965276813916194,-22.125971526665108,-5.416944838635812,-9.17668995193405,-17.21004055848017,-16.730437537193833,-1.3917051956969246,-9.527827878232973,-15.668459418631231,-23.384929457541737,-5.485459555962431,-5.519716914625741,8.363077683680507,1.3831408560311595
1605290410.8719888,-34.91253064774545,-68.26206930647741,-29.49986797894252,-30.21927251087202,-6.204864087891934,-8.037632776379002,-18.2805830167086,-16.91028867017621,-1.006309910734691,-7.943425040054901,-21.78339794003201,-34.14174007782098,-16.84177395284959,-9.099610894941602,5.048678233005295,2.736306523231892
1605290410.8759887,-53.017544701304615,-94.33191924925607,-27.452990798809765,-38.47529594872965,1.8970012359808048,-8.568621835660302,-8.988274479285845,-14.469451865415396,5.194272007324361,-5.194272007324299,-18.100731883726223,-41.53276520943004,-12.602425818265017,-11.506190341039108,11.30921052872514,1.819922178988358
1605290410.879989,-63.40608871595328,-112.32559688715948,-29.713976470588204,-45.42953975738152,8.705651270313604,-14.64930299839777,-5.62248899061567,-15.822617532616126,4.509124834058167,-7.189763149462088,-16.396428290226563,-48.62403845273514,-5.434073517967467,-15.308757152666482,14.366679789425527,-0.5523999084458374
1605290410.8839886,-77.15185387960628,-131.33843094529638,-45.95196447699699,-50.70517299153121,-0.5010138704508729,-17.261426596475133,-12.65381185625998,-14.68356035706108,-2.376604257267078,-4.509124834058105,-30.5875391165026,-52.11828903639273,-10.53841995880061,-13.553067521171862,5.03154955367364,2.3252182192721755
1605290410.8879886,-94.54602774090178,-150.51398745708397,-53.92536470588232,-57.43674396887156,-8.54292881666282,-18.109296223392047,-9.296590707255634,-14.2210860151064,1.982644632639079,-2.950415014877515,-42.03806124971386,-56.50323094529637,-6.958525978484747,-11.677477134355655,1.8284865186541848,1.982644632639079
1605290410.8919885,-87.16356694895853,-153.06616067750053,-47.88750524147399,-63.440346074616585,-2.1453670862897374,-21.911863035019422,-2.3080895399404584,-20.4045392538338,12.576732799267598,-7.523772396429357,-37.79871311512929,-63.20910890363924,-1.032002929732173,-17.44127772945751,11.6089624170291,-0.5609642481116649
1605290410.8959885,-52.1696750743877,-136.8196083314259,-51.11626129549092,-60.91386587319749,-1.6828927443350568,-22.400030395971587,-14.15257129777978,-23.958740215152176,5.947933897917174,-8.166097871366414,-38.73222613870448,-62.27559588006405,-20.09622302586401,-22.02319945067518,11.317774868390966,3.5242257724880144
1605290410.8999884,-17.70677225909816,-113.19059519340806,-58.71283057907985,-49.59180883497364,-14.91479752803842,-18.297711696040253,-27.504376836804727,-20.75567718013272,-7.763573907072525,-6.324764843213519,-45.34389636072324,-48.00740599679557,-37.40475349050123,-16.987367727168657,-1.3146261387044778,3.918185397116076
1605290410.9039884,14.109749599450703,-84.6199580682078,-48.92379034103911,-36.599705561913446,-19.5309766079194,-14.298165072098849,-22.400030395971587,-18.212068299381976,-5.665310688944807,-7.292535225452017,-37.79871311512929,-30.45907402151519,-26.605121171892847,-9.17668995193405,-3.5670474708170894,-1.0234385900663456
1605290410.9079883,54.53343282215613,-50.90215280384524,-28.908928542000424,-22.24587228198669,-9.0054031586175,-6.436101258869275,-13.02207846189056,-12.96212808422977,4.8945201190204015,-1.5458633096818182,-21.62923982604712,-16.93598168917369,-16.362170931563256,-3.292988601510612,6.607388052185885,4.098036530098452
1605290410.9119885,91.26588564888992,-18.48612716868845,-14.58078828107115,-5.982191256580422,-1.3745765163652697,5.588231631952422,-11.16361675440601,-3.2844242618447845,4.56907521171896,7.6436731517510035,-11.634655436026518,-4.089472190432562,-15.471479606317205,4.320709361409964,9.664857312886276,13.244751293202135
1605290410.9159882,113.29336726939806,6.042141634241276,-5.297044083314228,4.1751155870908985,-2.890464637216723,8.080454474708201,-12.13138713664451,-3.352938979171404,-2.710613504234347,2.0597236896315256,-4.714668986037964,7.780702586404242,-4.954470496681132,9.502134859235554,4.517689173723995,10.118767315175129
1605290410.9199882,126.04566903181508,16.52489338521404,5.322737102311772,2.085416708629008,-0.2954697184710148,-4.080907850766734,-10.487033920805644,-17.458406408789163,-0.7750727397573504,-14.35811544975964,5.314172762645946,7.926296360723308,2.393732936598795,0.9206665140764788,6.812932204165744,1.5458633096818803
1605290410.923988,132.203429251545,18.614592263675927,15.043262623025894,-3.8325420004577393,4.080907850766796,-16.901724330510383,-5.2884797436484,-27.983979858091065,6.5645663538567485,-20.43023227283128,12.688069214923354,-1.0919533073929648,-4.474867475394796,-13.279008651865384,12.39688166628522,-3.070315770199099
1605290410.927988,127.8270516823072,29.311452506294376,17.689643579766567,0.4581921721217981,-1.07482462806131,-16.550586404211458,-4.706104646372136,-23.19651398489353,6.110656351567895,-10.684013733119675,12.362624307621912,0.4667565117876255,-10.880993545433704,-11.874456946669689,10.264361089494194,-2.1453670862897374
1605290410.931988,115.73420407415888,44.44464069581143,18.11786056305794,12.157080155642054,1.2974974593728852,-5.648182009613152,-6.941397299153093,-12.482525062943433,6.3333291828794085,2.599277088578653,12.953563744564004,10.350004486152468,-11.53188336003659,-1.2289827420462036,12.628118837262562,9.330848065919003
1605290410.935988,106.77590478370338,47.88750524147405,21.980377752346104,14.144006958114016,14.349551110093874,-0.9634882124055536,-3.00180105287248,-10.564112977798093,15.09464866102086,5.63105333028156,18.751621698329167,11.018022980087007,-8.020504097047347,-0.8435874570839696,21.95468473334862,18.451869810025208
1605290410.939988,98.08310002288856,45.12122352941179,21.6035468070497,5.502588235294149,13.321830350194585,-6.11922069123366,-0.2526480201418777,-15.308757152666482,16.747566216525552,-1.4088338750285794,19.80503547722594,5.511152574959976,-1.742843121995849,-6.410408239871793,19.27404641794464,10.915250904097078
1605290410.9439878,80.36348125429163,50.73943035019458,18.588899244678448,5.579667292286596,7.1212484321355305,-4.654718608377172,-2.17106010528722,-13.85281940947582,9.159561272602456,-4.423481437399831,18.17781094071873,7.241149187457115,-0.7236867017623858,-5.793775783932219,11.018022980087007,4.517689173723995
1605290410.9479878,65.79553948271918,61.18792474250403,22.04032813000689,15.146034699015823,13.672968276493506,5.494023895628321,-0.4581921721217358,-7.789266926070007,8.131840512703166,0.2098263218128029,22.82824737926302,13.518810162508611,-3.412889356832196,-1.6143780270084376,14.203957335774808,10.761092790112183
1605290410.9519875,58.772780956740704,64.39955211718932,23.30785040054936,17.869494712748942,14.734946395056108,9.90465882352944,-3.352938979171404,-6.239121446555244,9.022531837949218,2.427990295262105,23.179385305561944,15.68558809796295,-7.669366170748423,0.800765758754895,15.4200935683223,15.574251682307194
1605290410.9559877,42.089447287708886,61.69322078278785,19.08563094529644,18.820136415655785,10.17871769283592,10.87242920576794,-11.40341826504918,-4.783183703364583,7.934860700389136,4.637589929045579,17.458406408789227,15.09464866102086,-11.977229022659616,4.063779171435142,10.70970675211722,19.70226340123601
1605290410.9599876,22.742603982604745,61.419161913481375,21.577853788052217,25.06354003204397,16.576279423209,13.76717601281761,-5.202836346990127,-0.8435874570839696,12.054308079652124,8.311691645685542,20.687162462806164,17.526921126115845,-1.6486353856717473,8.25174126802475,14.169699977111495,23.470572854200075
1605290410.9639876,13.484552803845304,58.82416699473566,24.087205310139648,21.53503208972308,17.34706999313347,6.4018439002060274,2.7876925612268564,-5.605360311284016,10.307182787823333,0.7151223620966207,24.327006820782817,18.16068226138708,11.823070908674785,5.288479743648463,16.396428290226627,13.244751293202135
1605290410.9679875,-0.0899255664911567,54.19942357518886,19.1969673609522,10.97520128175787,7.2497135271229425,-6.68446710917827,-3.027494071869962,-16.387863950560735,0.5352712291142449,-10.923815243762842,17.689643579766567,12.7651482719158,2.9589793545434047,-4.766055024032928,9.47644184023807,0.2098263218128029
1605290410.9719875,-14.38380846875712,58.48159340810257,20.07053000686659,12.259852231631983,9.022531837949218,-5.271351064316746,-5.408380498969985,-15.985339986266847,2.4965050125887243,-9.681985992217868,15.814053192950364,11.686041474021543,-7.51520805676353,-7.652237491416768,8.440156740672954,3.652690867475426
1605290410.9759874,-15.91682526894023,61.00807360952166,23.564780590524176,18.6060279240101,12.722326573586663,4.329273701075792,-1.9141299153123967,-7.737880888075042,7.1212484321355305,-3.806848981460257,19.24835339894716,15.71984545662626,-2.1967531242847023,-0.6551719844357665,11.40341826504924,8.423028061341299
1605290410.9799874,-23.573344930189943,46.94542787823303,18.751621698329167,18.06647452506297,6.213428427557824,5.939369558251347,-7.772138246738352,-4.688975967040482,-0.5952216067749745,-3.421453696498023,15.899696589608636,12.705197894255008,-1.4173982146944069,3.952442755779385,6.547437674525094,5.982191256580484
1605290410.983987,-38.937770290684334,37.43044650949877,15.462915266651438,16.75613055619138,5.682439368276524,3.626997848477944,-11.771684870679758,-4.7917480430304105,-3.8667993591210488,-2.093981048294773,13.76717601281761,8.405899382009643,-3.472839734492988,3.7725916227970098,3.618433508812116,7.061298054474739
1605290410.9879873,-41.88390313572896,43.45117729457544,15.514301304646402,17.552614145113328,8.465849759670435,5.691003707942352,-8.131840512703103,-1.991208972304844,0.3382914168002142,2.4708119935912416,14.597916960402868,11.137923735408592,1.9912089723049065,6.084963332570413,6.504615976195956,10.47846958113988
1605290410.9919872,-41.549893888761694,46.58572561226829,15.274499794003235,17.792415655756496,4.07234351110097,10.6411920347906,-4.183679926756663,3.935314076447731,1.4088338750286418,8.12327617303734,14.906233188372656,16.199448477912597,7.515208056763592,11.728863172350684,5.802340123598108,11.146488075074418
1605290410.9959872,-47.390773540856,38.894948592355256,18.21206829938204,17.278555275806852,5.3313014419776,11.549012039368307,2.3166538796063483,7.8063956054017245,7.095555413138048,12.679504875257528,17.989395468070526,15.865439230945327,9.836144106202823,12.525346761272631,6.890011261158191,14.435194506752149
1605290410.9999871,-51.972695262073664,24.6952734264134,11.317774868390966,8.328820325017197,10.298618448157503,2.761999542229374,0.8350231174182046,1.9912089723049065,10.624063355458944,10.07594561684599,12.619554497596734,3.455711055161395,3.17308784618909,2.8133855802243386,13.06490016021976,18.27201867704283
1605290411.003987,-60.78540077821008,8.38877070267799,-4.740362005035446,-6.22199276722359,4.209372945754208,-8.77416598764016,-10.76109279011212,-8.620007873655267,1.7085857633326014,1.742843121995911,-1.7514074616616762,-13.724354314488409,-10.093074296177583,-8.637136552986922,15.480043945983091,16.499200366216556
1605290411.007987,-67.85954534218354,3.001801052872542,-1.1690323643854117,-11.129359395742702,2.839078599221821,-11.925842984664651,-7.755009567406698,-12.636683176928328,1.84561519798584,-3.138830487525718,1.04913160906389,-16.84177395284959,-6.076398992904523,-11.189309773403492,16.42212130922411,9.38223410391397
1605290411.011987,-55.92085584802011,10.264361089494194,18.36622641336693,-4.003828793774288,17.903752071412253,-4.577639551384725,8.560057495994537,-8.234612588693032,16.130933760585975,-1.263240100709513,19.84785717555508,-7.849217303730799,10.024559578851026,-7.129812771801296,21.483646051728115,3.5070970931563594
1605290411.015987,-40.76197463950557,20.387410574502205,22.45998077363244,8.414463721675471,23.83883945983065,9.245204669260731,12.653811856260043,2.984672373540887,18.100731883726283,7.926296360723308,25.577400411993622,2.265267841611384,11.686041474021543,1.759971801327566,19.30830377660795,7.22402050812546
1605290411.0199869,-45.96909315632865,24.541115312428506,8.885502403295979,17.321376974135987,8.722779949645258,18.88008679331658,2.9932367132067146,12.876484687571557,5.528281254291631,16.507764705882384,12.99638544289314,9.91322316319527,1.6486353856718097,12.148515815976229,7.712187869077622,14.221086015106462
1605290411.0239868,-63.76579098191802,10.350004486152468,-6.367586541542655,10.726835431448874,-1.6743284046692295,12.610990157930908,-6.778674845502372,8.594314854657847,1.211854062714611,16.28509187457087,-1.6229423666742648,3.858235019455284,-7.001347676813885,11.1721810940719,6.898575600824018,17.175783199816923
1605290411.0279868,-72.26161593041883,-11.018022980086943,-13.193365255207109,-3.352938979171404,5.922240878919692,0.6209146257725191,-5.999319935912077,-0.9463595330738988,11.960100343328024,14.615045639734523,-6.11922069123366,-12.002922041657095,-7.592287113755977,1.3917051956969868,20.02770830853745,20.46448963149465
1605290411.0319867,-66.59202307164107,-17.30424829480427,-11.994357701991271,-10.692578072785505,9.54495655756469,-4.82600540169372,0.5352712291142449,-3.3871963378347134,19.479590569924497,13.553067521171924,-4.132293888761699,-16.319349233234117,-1.4687842526893713,-3.301552941176439,22.28869398031589,19.864985854886733
1605290411.035987,-66.01821231403063,-22.85394039826044,-13.85281940947582,-17.124397161821896,0.989181231403098,-8.662829571984403,-0.1670046234836035,-5.160014648660989,11.87445694666975,6.787239185168262,-7.677930510414251,-16.10524074158843,-2.624970107576073,-6.273378805218554,10.307182787823333,8.131840512703166
1605290411.0399866,-82.11917088578619,-50.29408468757149,-21.697754543373737,-27.572891554131346,-3.4471467154955056,-11.994357701991271,-4.774619363698755,-6.513180315861722,4.757490684367163,3.918185397116076,-14.28960073243302,-26.66507154955364,-7.078426733806332,-8.945452780956709,6.12778503089955,0.3811131151293513
1605290411.0439866,-105.45699647516592,-91.91677546349275,-36.43698310826273,-40.9246970931563,-8.77416598764016,-15.026133943694177,-11.917278644998824,-6.7529818265048895,1.5287346303502256,3.9952644541085225,-25.697301167315143,-40.65063822384982,-6.324764843213519,-7.395307301441946,5.63105333028156,1.0148742504005803
1605290411.0479865,-135.76619455252916,-137.04228116273742,-62.66099116502629,-61.21361776150145,-21.42369567406726,-23.65042398718239,-26.13408249027234,-14.52083790341036,-8.423028061341236,-4.620461249713862,-48.91522600137328,-56.34050849164565,-14.674996017395252,-11.394853925383352,-0.54383556878001,-0.9377951934080712
1605290411.0519865,-166.18672904554813,-174.95661286335542,-82.08491352712288,-78.7191280384527,-18.59746358434421,-28.96031457999539,-25.260519844357944,-20.48161831082624,-6.410408239871793,-6.641645410849133,-63.38896003662162,-74.12007763790338,-21.380873975738123,-20.35315321583884,5.7423897459373165,2.3252182192721755
1605290411.0559864,-166.04113527122908,-195.69944353398944,-82.83857541771569,-83.81491013962001,-3.789720302128602,-27.05046683451588,-8.705651270313542,-18.64028528267335,9.27946202792404,-0.4581921721217358,-60.03173888761727,-85.34792693980312,-12.944999404898114,-24.39552153810937,19.50528358892198,8.568621835660364
1605290411.0599864,-139.2861381551842,-206.54189755092693,-86.26431128404666,-86.85525072098875,-5.305608422980056,-29.22580910963604,-10.615499015793056,-22.98240549324785,5.391251819638392,-8.77416598764016,-64.21113664454106,-91.60845923552296,-16.464943007553185,-29.05452231631949,14.92336186770431,1.4516555733577787
1605290411.0639863,-111.84599386587315,-196.63295655756465,-86.89807241931788,-80.78313389791711,-11.146488075074355,-25.25195550469212,-18.40904811169601,-21.72344756237122,-5.134321629663507,-14.04979922178985,-69.11850327306016,-85.23659052414736,-24.81517418173492,-27.09328853284501,7.318228244449561,-2.410861615930388
1605290411.0679862,-68.76736534676124,-156.80877711146712,-63.55168249027234,-55.56115358205536,-2.025466330968153,-7.155505790798778,-5.733825406271427,-3.524225772487952,3.447146715495568,0.25264802014194,-51.767151110093806,-58.36169265278093,-5.802340123598046,-8.620007873655267,13.06490016021976,9.262333348592383
1605290411.0719862,-7.292535225452017,-125.06076997024486,-40.71915294117644,-37.37906047150374,6.967090318150637,0.2012619821469755,3.310117280842329,2.6335344472419626,8.705651270313604,5.03154955367364,-33.199662714579965,-41.164498603799466,9.373669764248142,0.2098263218128029,14.298165072098907,14.3581154497597
1605290411.075986,38.27831613641568,-115.10044293888758,-35.59767782101164,-37.16495197985806,9.296590707255696,-7.189763149462088,-0.7322510414282133,-8.054761455710658,4.954470496681194,-2.17106010528722,-28.73764174868388,-45.472361455710654,-3.070315770199099,-10.178717692835855,10.795350148775494,9.836144106202823
1605290411.079986,67.31999194323646,-91.82256772716865,-29.628333073929927,-31.152785534447208,8.397335042343816,-7.21545616845957,-2.282396520942976,-8.84268070496678,8.020504097047409,1.1604680247196466,-25.26908418402377,-39.400244632639016,-11.352032227054211,-10.958072602426151,13.381780727855377,10.83817184710463
1605290411.083986,99.05943474479288,-51.80997280842295,-16.387863950560735,-15.137470359349932,3.155959166857436,2.9589793545434047,-1.357447837033615,0.4410634927901433,9.339412405584833,4.7317976653696805,-17.766722636758953,-18.99142320897227,-2.093981048294773,1.4430912336919517,15.385836209658992,11.489061661707517
1605290411.087986,129.31724678416117,-20.49018265049207,-1.5886850080109551,-1.7514074616616762,5.434073517967529,13.50168148317696,2.453683314259587,7.617980132753521,10.5469842984665,3.2073452048524,-6.324764843213519,-5.802340123598046,9.21094731059742,9.031096177615046,18.58033490501262,11.660348455024064
1605290411.091986,151.05354085603116,-4.423481437399831,8.071890135042375,4.200808606088381,14.897668848706829,15.745538475623745,5.810904463263936,7.695059189745968,15.22311375600827,5.288479743648463,4.851698420691265,-2.359475577935423,12.936435065232349,8.697086930647776,20.67003378347451,16.798952254520515
1605290411.095986,158.73575353627834,-3.19878086518651,6.470358617532647,-1.0405672693980004,17.192911879148575,3.66981954680708,-1.9826446326390168,-5.528281254291568,10.512726939803189,1.6657640650034644,5.117192950331915,-7.857781643396627,1.7257144426642563,-0.929230853742244,15.06039130235755,17.74102961776153
1605290411.0999858,151.02784783703368,-1.0148742504005182,7.0869910734722215,-7.892039002059937,18.614592263675927,-6.530308995193376,-7.429564660105256,-17.578307164110747,8.18322655069813,-3.46427539482716,5.399816159304219,-12.431139024948468,-11.009458640421116,-10.838171847104569,16.61910112153814,14.272472053101426
1605290411.1039858,141.93251911192496,18.29771169604032,15.25737111467158,-3.027494071869962,19.98488661020832,-3.455711055161333,-3.823977660791912,-14.11831393911647,13.878512428473366,-0.3211627374684971,11.497626001373344,-3.8667993591210488,-8.054761455710658,-7.686494850080078,23.83883945983065,13.52737450217444
1605290411.1079855,132.75154699015795,35.914558388647315,14.640738658732005,3.061751430533334,6.864318242160708,-1.8970012359807424,-7.292535225452017,-9.776193728541967,7.506643717097765,-0.0813612268253293,8.148969192034821,5.802340123598108,-1.6315067063400923,-0.3639844357976342,13.681532616159334,9.039660517280874
1605290411.1119857,114.66366161593044,38.24405877775237,11.591833737697444,5.314172762645946,-3.036058411535789,-5.65674634927898,-10.555548638132263,-10.255796749828304,0.4667565117876255,-0.4410634927900809,3.943878416113558,7.052733714808912,-2.3080895399404584,0.6723006637674837,2.6677918059052725,5.399816159304219
1605290411.1159856,101.1234406042573,40.25667859922182,19.351125474937085,7.823524284733379,6.830060883497398,-4.808876722362065,-5.733825406271427,-8.628572213321094,4.226501625085863,3.130266147859953,12.174208834973708,7.292535225452079,-2.1025453879606006,-0.646607644769939,9.108175234607492,6.975654657816465
1605290411.1199856,98.3143371938659,45.30963900206,25.9456670176242,7.763573907072587,17.77528697642484,-3.4043250171663684,-5.194272007324299,-10.27292542915996,3.498532753490532,-0.8778448157472794,19.45389755092701,7.0869910734722215,-0.0299751888303648,-3.3871963378347134,13.690096955825162,6.744417486839124
1605290411.1239855,91.3172716868849,48.84671128404672,27.71848532845048,10.829607507438803,21.09825076676588,0.1926976424811481,-6.7872391851682,-9.896094483863552,4.740362005035508,-3.181652185854855,20.413103593499688,6.179171068894514,-0.6209146257724568,-3.5584831311512617,12.131387136644571,10.195846372167576
1605290411.1279857,77.2289329365988,53.8054639505608,29.140165712977826,19.145581322957227,20.32746019684141,6.410408239871855,-5.92224087891963,-4.868827100022857,9.596342595559657,1.7342787823300836,20.56726170748458,8.78273032730605,-2.950415014877515,0.7665084000915853,13.732918654154298,16.87603131151296
1605290411.1319854,61.41059757381554,58.72995925841156,24.02725493247885,20.09622302586408,9.793322407873688,4.397788418402412,-9.185254291599875,-6.735853147173235,1.109081986724682,-1.049131609063828,16.87603131151296,11.454804303044206,-5.040113893339406,1.4602199130236062,8.876938063630153,13.039207141222278
1605290411.1359854,42.62900068665601,62.44688267338066,17.1072684824903,19.05137358663313,-0.646607644769939,2.1881887846189367,-10.992329961089462,-7.71218786907756,-6.461794277866757,-4.586203891050552,13.475988464179476,14.974747905699274,-5.519716914625741,1.4687842526894337,0.5095782101167626,6.19629974822617
1605290411.139985,25.34616324101628,64.80207608148321,15.368707530327336,24.28418512245368,-0.2697766994735325,8.474414099336263,-9.082482215609948,-0.3982417944609439,-0.483885191119218,2.393732936598795,12.936435065232349,19.590926985580253,-6.290507484550209,6.718724467841642,2.582148409246998,8.303127306019714
1605290411.1439853,12.49965374227515,64.34816607919436,11.93440732433054,26.3824483405814,2.093981048294835,12.1399514763104,-10.923815243762842,2.5136336919203788,-0.0899255664911567,5.434073517967529,9.776193728542031,20.35315321583889,-9.425055802243044,8.962581460288426,7.241149187457115,9.78475806820786
1605290411.1479852,0.6979936827649659,58.89268171206229,8.080454474708201,23.52195889219504,5.160014648661051,10.38426184481578,-15.574251682307132,-1.220418402380376,-6.324764843213519,3.618433508812116,6.530308995193439,15.88256791027698,-14.015541863126542,6.025012954909621,6.530308995193439,11.523319020370824
1605290411.1519852,-9.296590707255634,43.45974163424128,7.438128999771146,18.64884962233924,11.095102037079451,6.256250125886962,-18.546077546349245,-6.059270313572869,-6.256250125886899,4.217937285420035,6.153478049897032,5.382687479972565,-19.29117509727623,1.100517647058855,6.69303144884416,16.696180178530586
1605290411.155985,-17.244297917143477,27.495812497138964,7.68649485008014,9.45074882124059,10.332875806820812,-1.357447837033615,-16.798952254520454,-12.456832043945951,-3.027494071869962,0.5181425497825901,5.750954085603143,-4.2693233234149375,-18.811572075989897,-4.817441062027893,9.219511650263248,16.32791357290001
1605290411.159985,-24.17284870679786,25.59452909132528,10.17871769283592,2.590712748912826,8.071890135042375,-7.189763149462088,-8.200355230029723,-14.734946395056046,2.9504150148775774,-3.9867001144426326,10.418519203479088,-2.6763561455710376,-9.24520466926067,-7.71218786907756,14.049799221789913,12.885049027237384
1605290411.163985,-29.49986797894252,28.155266651407675,10.60693467612729,0.6979936827649659,9.579213916228,-9.656292973220385,-3.592740489814572,-14.041234882124025,7.361049942778698,-3.3957606775005407,14.674996017395316,1.6229423666743272,-3.704076905470328,-7.926296360723246,14.572223941405388,9.38223410391397
1605290411.167985,-38.638018402380375,25.72299418631269,-0.1755689631494309,-0.3125983978026697,3.267295582513192,-10.5983703364614,-9.930351842526862,-14.169699977111437,1.6657640650034644,-3.173087846189028,5.36555880064091,-0.0471038681620196,-8.765601647974334,-7.660801831082596,5.9736269169146565,4.432045777065721
1605290411.171985,-51.06487525749596,29.54268967727172,-8.662829571984403,4.56907521171896,-4.620461249713862,-3.275859922178957,-11.206438452735147,-8.388770702677927,1.4088338750286418,1.4259625543602965,-3.2244738841839924,3.764027283131182,-9.810451087205278,-1.0148742504005182,5.117192950331915,6.9585259784848095
1605290411.1759849,-54.20798791485462,32.274714030670665,-4.534817853055587,11.249260151064346,-0.3896774547951164,6.256250125886962,-3.815413321126084,-3.190216525520683,10.855300526436286,9.97317354085606,1.6143780270084995,8.345949004348851,-6.547437674525032,5.733825406271489,16.267963195239215,14.683560357061143
1605290411.1799848,-50.122797894254944,21.04686472877092,-5.819468802929701,7.343921263447044,4.543382192721477,4.020957473106005,-7.592287113755977,-9.382234103913907,7.369614282444526,8.380206363012162,1.1519036850538191,1.2974974593728852,-14.2210860151064,1.228982742046266,16.576279423209,15.916825268940292
1605290411.1839848,-52.96615866330965,8.157533531700649,-12.944999404898114,-2.9161576562142053,3.7297699244678726,-4.012393133440115,-18.99142320897227,-19.52241226825357,-4.671847287708826,-3.207345204852337,-5.425509178301639,-9.330848065918945,-21.57785378805216,-7.343921263446981,8.67995825131612,12.645247516594218
1605290411.1879847,-54.139473197528005,1.7257144426642563,-6.470358617532584,-11.677477134355655,9.288026367589868,-9.759065049210314,-14.632174319066117,-25.2776485236896,-3.2587312428473023,-13.698661295490927,0.149875944152011,-14.931926207370076,-12.979256763561423,-14.006977523460714,13.79286903181509,8.58575051499202
1605290411.191985,-44.88142201876856,4.748926344701336,3.918185397116076,-7.489515037766048,11.129359395742764,-7.189763149462088,-3.5499187914854344,-21.218151522087403,1.7342787823300836,-12.234159212634438,8.757037308308568,-10.80391448844126,-5.605360311284016,-12.319802609292712,17.68107924010074,5.802340123598108
1605290411.1959846,-42.3635061570153,17.081575463492822,2.248139162279729,7.977682398718273,-0.0471038681620196,2.273832181277211,-6.170606729228625,-7.892039002059937,-1.9226942549782249,-0.4410634927900809,5.665310688944869,2.7876925612268564,-9.433620141908872,0.2098263218128029,5.29704408331429,8.405899382009643
1605290411.1999846,-49.129334493018966,16.413556969558282,-0.3725487754634616,8.380206363012162,-4.132293888761699,1.9312585946441143,-9.861837125200244,-4.389224078736522,-1.4859129320210265,4.080907850766796,4.868827100022919,4.491996154726513,-8.414463721675409,3.9867001144426952,-0.1841333028152583,8.474414099336263
1605290411.2039845,-48.358543923094494,-2.976108033874997,1.0748246280613725,-6.281943144884381,5.990755596246311,-7.369614282444464,-5.528281254291568,-12.114258457312854,7.2839708857862515,2.290960860608866,7.583722774090211,-9.390798443579737,-7.009912016479712,-5.6738750286106345,10.84673618677046,7.172634470130495
1605290411.2079844,-44.59023447013043,-13.133414877546317,-2.9332863355458603,-9.048224856946636,11.848763927672266,-6.855753902494818,-5.442637857633295,-11.951536003662133,11.257824490730174,5.845161821927245,2.265267841611384,-14.940490547035903,-14.04979922178985,-8.328820325017135,17.5440498054475,14.443758846417976
1605290411.2119844,-45.90914277866786,-14.178264316777264,-8.64570089265275,-9.365105424582252,12.388317326619394,-3.789720302128602,-8.123276173037276,-11.137923735408528,9.27946202792404,5.26278672465098,-3.113137468528236,-17.201476218814342,-16.233705836575844,-8.457285420004546,17.269990936141024,20.70429114213782
1605290411.2159843,-42.30355577935451,-16.670487159533042,-9.347976745250598,-15.197420737010724,13.26187997253379,-5.065806912336888,-5.35699446097502,-13.861383749141648,7.677930510414313,0.9806168917372708,-3.2587312428473023,-22.759732661936336,-12.92787072556646,-12.773712611581566,17.963702449073043,20.156173403524864
1605290411.2199843,-34.50144234378573,-10.889557885099531,-9.313719386587287,-6.341893522545173,8.637136552986984,2.359475577935485,-2.864771618219241,-4.82600540169372,7.943425040054963,5.982191256580484,-3.712641245136156,-15.137470359349932,-13.030642801556388,-6.18773540856028,15.916825268940292,23.11087058823532
1605290411.2239842,-31.401151384756204,-6.9499616388189205,-8.73990862897685,3.2587312428473645,5.802340123598108,9.245204669260731,1.2204184023804383,3.952442755779385,11.7031701533532,9.425055802243106,-2.582148409246936,-6.4960516365300665,-12.405446005950989,-0.0984899061569841,14.015541863126604,23.14512794689864
1605290411.2279842,-28.09531627374682,-15.428657907988066,-5.682439368276462,-5.1171929503318525,12.936435065232349,4.089472190432624,7.112684092469704,-1.7342787823300214,15.368707530327336,3.215909544518228,1.1347750057221644,-13.296137331197038,-9.981737880521829,-8.27743428702217,16.42212130922411,15.09464866102086
1605290411.231984,-21.79196227969784,-13.85281940947582,-0.3554200961318067,-6.701595788509925,17.903752071412253,2.128238406958145,7.857781643396689,-4.32927370107573,15.437222247653956,3.5413544518196693,5.125757289997742,-13.750047333485892,-2.4879406729228344,-7.626544472419286,16.576279423209,11.30921052872514
1605290411.235984,-14.426630167086255,-1.503041611352681,4.33783804074162,2.359475577935485,14.700689036392795,4.7317976653696805,6.598823712520058,0.5181425497825901,16.72187319752807,9.442184481574762,8.876938063630153,-4.663282948042999,5.699568047608179,1.4687842526894337,12.645247516594218,12.379752986953566
1605290411.239984,-9.30515504692146,-6.007884275577904,0.415370473792661,-5.451202197299121,10.555548638132326,-2.153931425955565,1.7342787823300836,-2.976108033874997,15.385836209658992,8.268869947356405,2.5136336919203788,-11.823070908674724,-4.372095399404866,-5.382687479972502,8.979710139620082,13.107721858548896
1605290411.243984,-13.42460242618445,-24.16428436713204,-5.09149993133437,-21.209587182421576,10.170153353170091,-11.977229022659616,-6.204864087891934,-11.095102037079393,9.502134859235554,2.6078414282444804,-6.11922069123366,-27.461555138475592,-20.26750981918056,-17.946573769741327,10.70970675211722,16.122369420920148
1605290411.247984,-15.874003570611093,-31.7437249713893,1.6828927443351192,-22.38290171663993,15.471479606317263,-13.741482993820064,-0.603785946440802,-12.071436758983715,12.705197894255008,-1.1690323643854117,0.2783410391394223,-29.85100590524144,-12.987821103227253,-19.402511512931987,17.989395468070526,15.265935454337408
1605290411.251984,-5.793775783932219,-25.654479468986004,7.335356923781216,-15.026133943694177,17.295683955138507,-11.240695811398458,8.166097871366476,-8.757037308308506,19.30830377660795,-1.9141299153123967,6.19629974822617,-23.667552666514045,-5.134321629663507,-17.064446784161102,17.492663767452537,9.176689951934112
1605290411.2559838,-0.5095782101167003,-17.201476218814342,2.3166538796063483,-11.23213147173263,9.562085236896346,-8.157533531700587,2.1881887846189367,-6.478922957198412,13.852819409475885,0.1755689631494932,0.4324991531243158,-19.9677579308766,-8.208919569695551,-12.979256763561423,7.9862467383841,7.301099565117907
1605290411.2599838,-1.6315067063400923,-10.889557885099531,4.928777477683711,-8.954017120622536,6.281943144884444,-3.23303822384982,1.905565575646632,-3.1045731288624085,9.493570519569726,2.6763561455711,4.046650492103487,-15.377271869993102,2.256703501945556,-5.254222384985091,10.14446033417261,8.645700892652812
1605290411.2639835,5.63105333028156,-5.442637857633295,10.666885053788082,-2.4708119935911794,12.414010345616877,6.102092011902068,9.108175234607492,4.098036530098452,13.124850537880551,8.5172357976654,13.090593179217242,-8.679958251316059,9.125303913939147,1.2032897230487836,20.07909434653242,13.553067521171924
1605290411.2679837,8.868373723964325,-6.316200503547691,3.815413321126147,5.288479743648463,15.891132249942808,13.013514122224796,0.843587457084032,8.885502403295979,9.219511650263248,14.3581154497597,7.874910322728343,-6.341893522545173,-5.733825406271427,3.9867001144426952,16.661922819867275,22.3229513389792
1605290411.2719836,3.087444449530816,-10.863864866102052,0.1070542458228739,7.72075220874345,18.68310698100255,10.24723241016254,-6.513180315861722,5.922240878919692,4.697540306706371,12.020050720988817,4.483431815060685,-8.148969192034759,-11.660348455024002,2.556455390249516,12.114258457312916,22.442852094300783
1605290411.2759836,7.22402050812546,-6.11922069123366,7.309663904783734,7.9862467383841,21.34661661707488,5.733825406271489,1.802793499656703,3.147394827191608,9.236640329594904,7.275406546120425,11.300646189059313,-4.714668986037964,0.2783410391394223,1.4859129320210884,16.944546028839582,12.782276951247455
1605290411.2799835,15.539994323643883,-0.954923872739726,7.566594094758557,5.768082764934799,16.841773952849653,1.5629919890135353,3.5413544518196693,0.8093300984207223,8.12327617303734,4.286452002746655,12.242723552300328,-1.220418402380376,8.525800137331228,2.1196740672923178,15.18885639734496,7.48951503776611
1605290411.2839837,14.709253376058625,-7.763573907072525,-0.4410634927900809,-2.727742183566002,10.77822146944384,-5.374123140306675,-4.483431815060623,-5.776647104600563,-0.5010138704508729,-0.7922014190890052,7.797831265735897,-7.318228244449499,10.829607507438803,-0.3725487754634616,7.892039002059999,7.635108812085176
1605290411.2879834,10.238668070496711,-13.561631860837688,-10.341440146486578,-9.322283726253117,7.1212484321355305,-5.502588235294086,-11.549012039368243,-5.845161821927183,-3.113137468528236,1.3917051956969868,0.2697766994735949,-14.04979922178985,-2.3937329365987328,-3.9867001144426326,8.714215609979432,13.279008651865446
1605290411.2919834,3.635562188143771,-17.80097999542226,-21.86047699702446,-12.636683176928328,3.1045731288624707,-1.828486518654123,-19.19696736095213,-2.719177843900175,-1.6315067063400923,9.339412405584833,-12.268416571297749,-18.46043414969097,-28.24947438773172,-7.146941451132951,11.377725246051758,23.25646436255439
1605290411.2959833,0.6637363241016562,-27.79556438544286,-20.601519066147823,-19.214096040283785,5.605360311284078,-8.611443533989439,-16.088112062256776,-9.878965804531898,0.8178944380865497,5.022985214007813,-12.1913375143053,-23.907354177157213,-25.04641135271226,-12.25985223163192,12.225594872968673,22.17735756466013
1605290411.2999833,10.529855619134844,-25.654479468986004,-4.620461249713862,-17.681079240100676,12.319802609292775,-11.651784115358174,-1.2546757610436858,-12.79084129091322,8.440156740672954,-2.599277088578591,1.9312585946441143,-19.70226340123595,3.96957143511104,-9.964609201190171,14.95761922636762,10.350004486152468
1605290411.3039832,18.30627603570614,-10.589805996795574,0.0042821698329448,-5.05724257267106,14.144006958114016,0.6894293430991385,2.744870862897719,-2.093981048294773,15.25737111467158,5.4169448386358745,5.082935591668605,-8.620007873655267,7.403871641107836,-0.0899255664911567,17.090139803158646,10.87242920576794
1605290411.3079832,13.210493934538826,-2.13680274662391,-7.951989379720728,2.393732936598795,14.212521675440634,12.73945525291832,-1.9997733119706715,6.787239185168262,14.024106202792431,16.208012817578425,-2.7619995422293115,-5.177143327992644,-10.093074296177583,3.678383886472908,17.38132735179678,20.31033151750976
1605290411.311983,6.3333291828794085,-2.1624957656213923,-9.450748821240529,2.453683314259587,13.219058274204654,13.947027145799984,-1.5972493476767826,8.645700892652812,8.003375417715755,15.137470359349996,-6.598823712519996,-6.11922069123366,-11.514754680704934,2.7876925612268564,16.430685648889938,19.35968981460292
1605290411.315983,2.3166538796063483,-10.675449393453848,-8.50867145799951,-3.053187090867444,9.990302220187717,5.708132387274007,-2.213881803616357,4.123729549095934,4.509124834058167,9.64772863355462,-8.285998626687997,-11.46336864270997,-4.055214831769252,0.475320851453453,15.428657907988129,13.887076768139192
1605290411.319983,2.719177843900237,-26.39101268024716,-9.896094483863552,-14.871975829709283,14.46088752574963,-7.532336736095185,-4.637589929045517,-7.352485603112809,7.78926692607007,5.468330876630839,-7.498079377431875,-25.94566701762414,-3.76402728313112,-9.048224856946636,19.35968981460292,15.728409796292087
1605290411.323983,10.90668656443125,-28.609176653696466,-4.808876722362065,-18.94003717097731,20.49018265049213,-10.983765621423634,-1.6743284046692295,-11.608962417029035,9.836144106202823,2.702049164568582,-1.9483872739757069,-30.347737605859432,-5.528281254291568,-15.488608285648858,20.43023227283134,17.04731810482951
1605290411.327983,16.77325923552303,-18.59746358434421,-2.3680399176012505,-12.79084129091322,14.69212469672697,-2.9332863355458603,-2.4965050125886616,-3.798284641794429,3.310117280842329,2.7106135042344097,-3.5670474708170894,-19.46246189059278,-13.818562050812512,-12.06287241931789,10.332875806820812,15.02613394369424
1605290411.3319829,14.383808468757184,-16.61053678187225,-7.206891828793743,-10.221539391164994,7.75500956740676,1.742843121995911,-8.500107118333682,1.0576959487297175,-2.111109727626428,4.046650492103487,-11.086537697413563,-14.212521675440572,-25.38898493934536,-9.527827878232973,2.0425950102998707,14.486580544747111
1605290411.3359828,10.058816937514337,-25.483192675669457,-8.183226550698068,-13.193365255207109,9.176689951934112,3.6098691691462887,-5.485459555962431,1.8970012359808048,2.37660425726714,6.153478049897032,-11.805942229343067,-18.66597830167083,-20.36171755550466,-8.071890135042311,6.230557106889479,14.19539299610898
1605290411.3399827,-1.4259625543602343,-52.6407137560082,-13.407473746852794,-23.436315495536704,11.454804303044206,2.1368027466239723,0.5095782101167626,0.7579440604257578,9.202382970931597,7.4466933394369725,-15.985339986266847,-29.51699665827417,-7.361049942778636,-7.009912016479712,13.047771480888104,13.176236575875516
1605290411.3439827,-31.16134987411304,-102.52799230945293,-38.10702934309907,-46.4230031586175,8.611443533989501,-12.285545250629404,-5.031549553673578,-12.499653742275088,7.6436731517510035,0.8692804760815143,-37.6788123598077,-52.41804092469669,-10.495598260471471,-16.58484376287477,14.555095262073731,10.581241657129809
1605290411.3479826,-71.10543007553213,-144.904344975967,-64.71643268482487,-64.05697853055615,-1.6571997253375743,-26.33106230258637,-13.844255069809993,-23.530523231860805,0.6037859464408643,-7.986246738384038,-61.667527763790304,-69.85503648432132,-19.419640192263643,-25.07210437170974,11.215002792401036,4.363531059739102
1605290411.3519826,-100.59245154497592,-163.93430771343552,-74.49690858319978,-64.77638306248566,-11.240695811398458,-23.530523231860805,-13.698661295490927,-17.86949471274888,-0.972052552071381,-5.040113893339406,-70.34320384527348,-69.66662101167312,-17.860930373083054,-18.871522453650687,7.2839708857862515,1.657199725337637
1605290411.3559823,-106.83585516136412,-176.67804513618674,-75.10497669947353,-65.23885740444034,-8.465849759670373,-17.792415655756432,-11.180745433737666,-11.83163524834055,2.3252182192721755,0.4667565117876255,-70.43741158159759,-70.02632327763787,-18.880086793316515,-15.771231494621162,4.920213138017884,4.6632829480430615
1605290411.3599825,-92.0880622568093,-184.3773864957656,-73.55483121995877,-66.73761684596013,-1.785664820324986,-17.338505653467582,-13.42460242618445,-14.409501487754603,2.171060105287282,-1.7171501029983665,-71.20820215152204,-75.73873783474475,-28.59204797436481,-20.815627557793512,5.571102952620768,8.05476145571072
1605290411.3639824,-62.45544701304643,-173.4578534218356,-65.94969759670401,-58.85842435339891,-0.2012619821469132,-14.606481300068634,-13.664403936827616,-14.426630167086255,1.1775967040513011,-2.385168596932905,-66.85751760128173,-72.09032913710227,-28.29229608606085,-18.43474113069349,11.36916090638593,11.317774868390966
1605290411.3679824,-21.175329823758265,-146.90840045777065,-53.43719734493016,-51.46739922178985,0.9549238727397884,-13.775740352483371,-7.540901075761012,-13.544503181506034,6.384715220874373,-1.819922178988296,-53.7026918745708,-60.37431247425037,-14.066927901121506,-13.510245822842723,18.9486015106432,11.360596566720105
1605290411.3719823,22.19448624399179,-117.90954634927895,-40.6763312428473,-47.5791890135042,2.90759331654844,-15.822617532616126,-2.359475577935423,-15.471479606317205,9.938916182192752,-7.48095069810022,-39.51158104829477,-49.21497788967724,-4.663282948042999,-14.812025452048491,18.725928679331684,6.881446921492363
1605290411.3759823,58.90124605172811,-91.97672584115354,-29.01170061799036,-33.72208743419544,4.483431815060685,-10.307182787823267,-3.301552941176439,-12.730890913252429,5.682439368276524,-8.945452780956709,-28.83184948500798,-36.70247763790338,-6.967090318150575,-11.908714305332996,12.559604119935942,8.011939757381583
1605290411.3799822,89.89559130235754,-64.43380947585256,-16.31078489356829,-16.336477912565773,6.504615976195956,-3.7383342641336377,-6.770110505836544,-9.964609201190171,-1.2032897230487214,-7.806395605401662,-18.546077546349245,-20.807063218127684,-8.551493156328648,-5.100064271000197,5.716696726939834,9.819015426871168
1605290411.3839822,115.40875916685742,-35.691885557335745,-4.449174456397314,-5.425509178301639,7.772138246738415,-3.875363698786877,-11.189309773403492,-14.48658054474705,-8.705651270313542,-14.700689036392736,-8.020504097047347,-7.720752208743388,-4.29501634241242,-2.179624444953048,3.695512565804562,6.3333291828794085
1605290411.387982,133.40243680476084,-13.938462806134094,2.97610803387506,3.147394827191608,12.157080155642054,-3.138830487525718,-15.07751998168914,-18.494691508354283,-13.912769787136613,-19.239789059281268,0.963488212405616,-1.0919533073929648,-1.1861610437170664,-0.5866572671091471,11.180745433737728,9.87896580453196
1605290411.391982,143.64538704509044,-1.6486353856717473,10.495598260471532,7.206891828793805,20.84132057679106,-3.7554629434652926,-11.977229022659616,-20.19899510185394,-9.853272785534417,-17.475535088120818,9.330848065919003,-1.0919533073929648,-0.0042821698328825,-2.890464637216723,20.26750981918062,15.55712300297554
1605290411.395982,144.38192025635158,9.296590707255696,20.77280585946444,5.853726161593072,22.25443662165258,-8.919759761959227,-3.4300180361638506,-20.575826047150347,-0.0813612268253293,-17.526921126115784,16.542022064545694,-0.0385395284961922,4.329273701075792,-7.549465415426839,17.758158297093185,6.907139940489845
1605290411.399982,134.90976058594646,22.15166454566265,22.648396246280644,12.33693128862443,13.570196200503576,-5.502588235294086,-0.4324991531242535,-12.02861506065458,5.588231631952422,-9.10817523460743,16.105240741588496,6.701595788509987,0.7579440604257578,-3.361503318837231,11.232131471732693,2.590712748912826
1605290411.403982,118.7145942778668,32.000655161364186,14.246779034103945,22.16022888532848,8.491542778667919,5.922240878919692,-4.080907850766734,0.903537834744824,7.746445227740932,7.22402050812546,10.452776562142397,12.885049027237384,-12.39688166628516,4.945906157015366,14.049799221789913,15.18885639734496
1605290411.407982,102.37383419546808,36.82237839322502,10.255796749828368,23.28215738155188,8.423028061341299,10.101638635843472,-5.6738750286106345,4.637589929045579,6.230557106889479,9.142432593270804,10.427083543144915,14.520837903410422,-13.6900969558251,6.581695033188403,16.242270176241732,20.12191604486156
1605290411.4119818,91.9424684824903,37.71306971847108,13.06490016021976,19.88211453421839,8.174662211032304,6.084963332570413,-7.121248432135468,-1.4773485923551988,0.2697766994735949,-2.4965050125886616,14.99187658503093,13.86138374914171,-4.4320457770656585,4.209372945754208,12.10569411764709,11.90014996566723
1605290411.4159818,82.73580334172583,36.12866688029301,14.238214694438115,14.65786733806366,9.219511650263248,-0.972052552071381,-10.778221469443777,-12.696633554589118,-3.901056717784359,-12.12282279697868,17.098704142824474,9.998866559853544,-3.626997848477881,-1.263240100709513,11.060844678416144,6.684467109178333
1605290411.4199817,67.00311137560085,30.62179647516597,10.050252597848509,6.12778503089955,12.722326573586663,-8.183226550698068,-16.490636026550664,-22.100278507667625,-6.281943144884381,-14.794896772716836,13.887076768139192,0.0984899061570464,-10.290054108491614,-8.679958251316059,16.55058640421152,9.373669764248142
1605290411.4239817,49.352007324330536,29.174423071641137,2.4708119935912416,5.7423897459373165,14.400937148088838,-6.795803524834026,-23.89022549782556,-20.24181680018308,-10.649756374456366,-7.301099565117845,8.011939757381583,-3.926749736781841,-17.535485465781612,-7.361049942778636,20.07909434653242,17.595435843442466
1605290411.4279816,35.828914991989045,38.53524632639051,2.744870862897719,15.034698283360068,16.730437537193897,2.3166538796063483,-21.41513133440144,-9.347976745250598,-7.138377111467124,5.134321629663569,7.994811078049928,4.432045777065721,-20.96122133211258,-0.2098263218127406,21.72344756237128,23.641859647516625
1605290411.4319816,24.11289832913713,48.863839963378375,15.608509040970503,21.70631888303963,16.610536781872312,8.363077683680507,-4.055214831769252,-0.0299751888303648,6.050705973907103,8.277434287022233,16.58484376287483,14.375244129091357,-8.919759761959227,4.055214831769314,22.59701020828568,16.901724330510444
1605290411.4359815,12.782276951247455,50.079976195925866,24.83230286106664,21.42369567406732,10.87242920576794,7.772138246738415,7.4466933394369725,3.1388304875257806,13.8271263904784,4.697540306706371,21.87760567635617,15.916825268940292,9.97317354085606,6.641645410849195,18.50325584802017,6.513180315861784
1605290411.4399817,0.8350231174182046,45.7464203250172,21.18389416342416,16.739001876859724,6.093527672236241,4.860262760357092,3.601304829480461,1.657199725337637,12.448267704280186,4.688975967040544,17.77528697642484,12.39688166628522,8.157533531700649,5.26278672465098,10.101638635843472,7.926296360723308
1605290411.4439814,-13.407473746852794,36.12866688029301,10.21297505149923,8.731344289311085,9.639164293888792,1.9740802929732515,-7.532336736095185,-3.901056717784359,7.583722774090211,5.59679597161825,8.962581460288426,4.226501625085863,-15.385836209658928,-3.421453696498023,7.9862467383841,18.383355092698583
1605290411.4479814,-25.919973998626656,24.207106065461232,-0.6723006637674213,1.5715563286793628,17.030189425497856,-0.7408153810940407,-17.389891691462545,-10.20441071183334,0.9206665140764788,2.41086161593045,1.8284865186541848,-6.41897257953762,-31.92357610437168,-11.72886317235062,14.769203753719417,24.3526998397803
1605290411.4519813,-33.0540689402609,22.793990020599708,-0.4667565117875632,-0.7151223620965584,22.280129640650063,-1.4773485923551988,-14.212521675440572,-11.686041474021485,0.1156185854887013,0.3382914168002142,3.9867001144426952,-9.116739574273256,-23.924482856488865,-12.739455252918257,20.09622302586408,21.406566994735662
1605290411.4559813,-38.18410840009152,29.82531288624402,8.12327617303734,2.385168596932968,21.29523057907991,1.4002695353628145,-0.6551719844357665,-6.2305571068894166,6.016448615243793,4.149422568093416,11.985793362325506,-1.5287346303501632,-6.530308995193376,-7.51520805676353,15.8568748912795,15.411529228656471
1605290411.4599812,-44.49602673380633,31.906447425040085,8.705651270313604,6.890011261158191,13.8271263904784,3.1217018081941257,2.256703501945556,-1.1604680247195842,5.836597482261418,7.027040695811429,14.28960073243308,4.7317976653696805,1.58012066834519,-1.2118540627145489,7.232584847791287,10.281489768825848
1605290411.4639812,-51.27041940947582,30.433381002517766,4.603332570382269,11.086537697413624,10.769657129778013,3.961007095445213,-4.226501625085801,1.6229423666743272,0.3382914168002142,6.992783337148119,12.53391110093846,5.237093705653498,0.6894293430991385,2.2138818036164194,5.29704408331429,10.324311467154986
1605290411.467981,-55.75813339436939,34.01327498283363,5.288479743648463,18.00652414740218,13.758611673151782,11.745991851682335,-5.160014648660989,9.656292973220449,-0.2012619821469132,14.512273563744596,12.919306385900692,6.12778503089955,-2.5735840695811087,6.573130693522576,7.763573907072587,18.01508848706801
1605290411.471981,-57.62515944151976,32.788574410620306,4.988727855344504,19.53954094758529,13.647275257496023,15.385836209658992,-3.789720302128602,13.801433371480918,2.085416708629008,21.37230963607236,10.632627695124771,3.036058411535852,-10.795350148775432,6.067834653238759,8.003375417715755,23.419186816205112
1605290411.475981,-57.30827887388415,20.60151906614789,4.783183703364645,7.429564660105318,14.28960073243308,4.594768230716442,-2.1453670862897374,4.30358068207831,7.549465415426901,12.388317326619394,9.47644184023807,-8.106147493705622,-15.240242435339862,-5.768082764934737,12.1399514763104,18.717364339665856
1605290411.479981,-54.66189791714348,9.442184481574762,7.669366170748486,-6.932832959487265,19.659441702906875,-3.798284641794429,0.8949734950789965,-3.344374639505576,14.400937148088838,4.654718608377234,12.388317326619394,-17.612564522774058,-6.513180315861722,-13.42460242618445,17.64682188143743,17.895187731746425
1605290411.483981,-56.40045886930644,5.768082764934799,2.4965050125887243,-13.972720164797405,17.886623392080597,-2.976108033874997,-3.4300180361638506,-0.8521517967497971,12.225594872968673,10.495598260471532,8.011939757381583,-20.644340764476965,-1.2461114213778584,-10.084509956511756,13.784304692149265,24.11289832913713
1605290411.4879808,-65.54717363241012,4.988727855344504,-4.748926344701273,-13.193365255207109,8.166097871366476,-3.190216525520683,-7.1126840924696415,0.9121021744106512,6.170606729228688,12.99638544289314,-1.1690323643854117,-18.4689984893568,-10.64119203479054,-8.936888441290881,8.500107118333746,21.75770492103459
1605290411.4919808,-68.57038553444721,5.8622905012589,-0.9463595330738988,-4.654718608377172,6.547437674525094,-0.7322510414282133,1.7856648203250485,2.419425955596277,10.21297505149923,10.74396411078053,-1.8627438773174327,-13.082028839551352,-16.199448477912533,-9.502134859235492,13.59588921950106,15.497172625314748
1605290411.4959807,-59.56070020599676,8.474414099336263,4.029521812771832,2.839078599221821,13.50168148317696,5.725261066605661,10.135895994506782,7.712187869077622,18.25488999771117,15.231678095674097,1.84561519798584,-9.4421844815747,-10.889557885099531,-5.8708548409246655,18.25488999771117,17.895187731746425
